CTI3   

DESCRIPTOR "Argyll Calibration Target chart information 3"
ORIGINATOR "Argyll dispread"
CREATED "Tue May 26 12:27:02 2020"
DEVICE_CLASS "DISPLAY"
SINGLE_DIM_STEPS "29"
COMP_GREY_STEPS "85"
DARK_REGION_EMPHASIS "1.6"
COLOR_REP "RGB_XYZ"
TARGET_INSTRUMENT "X-Rite i1 DisplayPro, ColorMunki Display"
DISPLAY_TYPE_REFRESH "YES"
INSTRUMENT_TYPE_SPECTRAL "NO"
LUMINANCE_XYZ_CDM2 "374.720273 393.486529 433.536678"
NORMALIZED_TO_Y_100 "YES"
VIDEO_LUT_CALIBRATION_POSSIBLE "YES"

BEGIN_ARGYLL_COLPROF_ARGS
-v -qh -aX -bn -C "No copyright. Created with DisplayCAL 3.8.9.3 and ArgyllCMS 2.1.2" -M "DELL U2718Q" -A "Dell, Inc."
END_ARGYLL_COLPROF_ARGS

OBSERVER "1931_2"
USE_BLACK_POINT_COMPENSATION "NO"
BLACK_POINT_CORRECTION "0.0"
HIRES_B2A "YES"
HIRES_B2A_SIZE "-1"
SMOOTH_B2A "YES"
PATCH_SEQUENCE "OPTIMIZE_DISPLAY_RESPONSE_DELAY"

NUMBER_OF_FIELDS 7
BEGIN_DATA_FORMAT
SAMPLE_ID RGB_R RGB_G RGB_B XYZ_X XYZ_Y XYZ_Z
END_DATA_FORMAT

NUMBER_OF_SETS 1140
BEGIN_DATA
1 100.0000 100.0000 100.0000 95.23078 100.0000 110.1783
2 1.960800 1.960800 1.960800 0.236998 0.247244 0.299181
3 3.921600 3.921600 3.921600 0.372079 0.388852 0.470142
4 5.882400 5.882400 5.882400 0.551130 0.585052 0.645872
5 9.803900 9.803900 9.803900 0.998095 1.033590 1.203136
6 13.72600 13.72600 13.72600 1.700898 1.798642 1.971571
7 17.64700 17.64700 17.64700 2.553788 2.665478 2.983414
8 21.56900 21.56900 21.56900 3.777300 3.950050 4.412004
9 25.49000 25.49000 25.49000 5.150222 5.400554 5.979987
10 29.41200 29.41200 29.41200 6.771600 7.160072 7.807507
11 33.33300 33.33300 33.33300 8.743140 9.094513 10.12063
12 37.25500 37.25500 37.25500 10.93254 11.44027 12.56615
13 41.17600 41.17600 41.17600 13.44123 14.12187 15.56414
14 45.09800 45.09800 45.09800 16.43385 17.27116 19.06146
15 49.02000 49.02000 49.02000 19.79390 20.86352 22.77490
16 52.94100 52.94100 52.94100 23.22847 24.53507 26.66186
17 56.86300 56.86300 56.86300 27.09670 28.39907 31.51715
18 60.78400 60.78400 60.78400 31.32133 32.93371 36.43120
19 64.70600 64.70600 64.70600 36.03739 38.03503 41.82165
20 68.62700 68.62700 68.62700 40.88860 43.01042 47.08792
21 72.54900 72.54900 72.54900 46.46348 48.86346 53.95266
22 76.47100 76.47100 76.47100 52.05267 54.85899 60.11400
23 80.39200 80.39200 80.39200 58.47578 61.54947 67.12101
24 84.31400 84.31400 84.31400 64.79294 68.20547 74.72598
25 88.23500 88.23500 88.23500 71.91958 75.60750 83.06634
26 92.15700 92.15700 92.15700 78.87283 82.90221 92.20119
27 96.07800 96.07800 96.07800 86.75814 91.19004 100.5464
28 46.00270 28.10420 18.71280 9.706271 8.593639 4.318166
29 71.87900 37.20220 26.78020 22.63088 18.28211 8.253013
30 72.69460 47.85180 40.40090 27.80904 24.89854 16.56853
31 76.75090 59.57040 69.21870 40.82742 37.46398 47.78652
32 100.0000 0.000000 16.74560 36.18765 20.48637 5.465014
33 100.0000 0.000000 29.16690 36.94350 20.82749 9.347846
34 100.0000 16.42100 38.60990 39.27543 23.59662 14.86104
35 64.35070 69.16220 0.000000 31.27223 39.01610 5.818462
36 81.40920 71.46570 0.000000 41.89452 46.55363 6.765012
37 100.0000 73.66540 0.000000 56.12083 56.18920 8.061707
38 7.042300 0.000000 0.000000 0.332915 0.245195 0.171715
39 8.992800 0.000000 0.000000 0.422749 0.300275 0.192334
40 11.02940 0.000000 0.000000 0.528663 0.364929 0.217295
41 13.15790 0.000000 0.000000 0.678245 0.447551 0.228201
42 15.38460 0.000000 0.000000 0.825654 0.528851 0.237750
43 17.71650 0.000000 0.000000 1.046065 0.650934 0.249389
44 20.16130 0.000000 0.000000 1.344629 0.820329 0.269980
45 22.72730 0.000000 0.000000 1.633637 0.982418 0.284834
46 25.42370 0.000000 0.000000 2.011446 1.197455 0.305228
47 28.26090 0.000000 0.000000 2.415844 1.423028 0.321870
48 31.25000 0.000000 0.000000 2.925320 1.710544 0.348562
49 34.40370 0.000000 0.000000 3.524920 2.050638 0.382577
50 37.73580 0.000000 0.000000 4.192806 2.429361 0.422931
51 41.26210 0.000000 0.000000 5.065879 2.916480 0.459016
52 45.00000 0.000000 0.000000 6.163363 3.534565 0.507295
53 53.19150 0.000000 0.000000 8.914827 5.085531 0.647464
54 55.44400 0.000000 0.000000 9.457657 5.394429 0.680210
55 57.69230 0.000000 0.000000 10.29537 5.867247 0.723708
56 62.50000 0.000000 0.000000 12.46129 7.081199 0.833292
57 67.64710 0.000000 0.000000 14.68709 8.348564 0.955808
58 73.17070 0.000000 0.000000 17.59834 9.988814 1.110256
59 79.11390 0.000000 0.000000 20.83338 11.82738 1.302217
60 85.52630 0.000000 0.000000 24.75452 14.06030 1.522816
61 92.46570 0.000000 0.000000 29.46237 16.72621 1.786127
62 100.0000 34.87420 15.06880 40.46680 28.08667 6.312273
63 100.0000 43.53950 53.55340 47.06065 34.17493 28.35349
64 0.000000 3.378400 0.000000 0.214797 0.293482 0.197616
65 0.000000 5.172400 0.000000 0.266782 0.379703 0.230249
66 0.000000 7.042300 0.000000 0.370304 0.554139 0.271549
67 0.000000 8.992800 0.000000 0.456183 0.698349 0.299138
68 0.000000 11.02940 0.000000 0.589484 0.920712 0.335071
69 0.000000 13.15790 0.000000 0.797183 1.284565 0.388392
70 0.000000 15.38460 0.000000 0.949519 1.552982 0.423519
71 0.000000 17.71650 0.000000 1.166719 1.937540 0.471235
72 0.000000 20.16130 0.000000 1.442343 2.420900 0.533891
73 0.000000 22.72730 0.000000 1.822930 3.098447 0.627044
74 0.000000 25.42370 0.000000 2.285925 3.902315 0.731061
75 0.000000 28.26090 0.000000 2.786827 4.771989 0.855927
76 0.000000 31.25000 0.000000 3.395077 5.839017 1.010740
77 0.000000 34.40370 0.000000 4.061422 7.011309 1.185840
78 0.000000 37.73580 0.000000 4.887632 8.443230 1.395959
79 0.000000 41.26210 0.000000 5.870879 10.16460 1.647934
80 0.000000 45.00000 0.000000 7.159330 12.43023 1.979510
81 0.000000 48.96910 0.000000 8.572708 14.88971 2.340439
82 0.000000 53.19150 0.000000 10.20359 17.74394 2.775622
83 0.000000 57.69230 0.000000 11.99638 20.87927 3.249617
84 0.000000 62.50000 0.000000 14.45229 25.16539 3.888873
85 0.000000 67.64710 0.000000 17.34616 30.21955 4.698434
86 0.000000 73.17070 0.000000 20.39243 35.50709 5.574044
87 0.000000 79.11390 0.000000 24.38982 42.45025 6.710218
88 0.000000 85.52630 0.000000 28.93059 50.33731 8.043548
89 0.000000 92.46570 0.000000 34.62387 60.23530 9.733070
90 100.0000 100.0000 0.000000 76.26012 91.36667 14.25701
91 100.0000 100.0000 23.32610 77.26680 91.82218 19.32635
92 0.000000 0.000000 3.378400 0.152293 0.131384 0.370745
93 0.000000 0.000000 5.172400 0.175311 0.141996 0.486224
94 0.000000 0.000000 7.042300 0.211301 0.158510 0.669510
95 0.000000 0.000000 8.992800 0.257746 0.179965 0.907933
96 0.000000 0.000000 11.02940 0.309957 0.204183 1.167661
97 0.000000 0.000000 13.15790 0.393063 0.242458 1.581569
98 0.000000 0.000000 15.38460 0.469755 0.277764 1.963865
99 0.000000 0.000000 17.71650 0.583242 0.330307 2.536606
100 0.000000 0.000000 20.16130 0.719738 0.393256 3.229886
101 0.000000 0.000000 22.72730 0.921335 0.486369 4.255420
102 0.000000 0.000000 25.42370 1.112714 0.574740 5.230340
103 0.000000 0.000000 28.26090 1.348753 0.684123 6.428286
104 0.000000 0.000000 31.25000 1.618436 0.808567 7.803145
105 0.000000 0.000000 34.40370 1.928197 0.949700 9.375873
106 0.000000 0.000000 37.73580 2.322100 1.132959 11.37458
107 0.000000 0.000000 41.26210 2.767740 1.337092 13.62753
108 0.000000 0.000000 45.00000 3.386659 1.623317 16.76267
109 0.000000 0.000000 48.96910 4.038358 1.923170 20.06755
110 0.000000 0.000000 53.19150 4.752079 2.254451 23.68541
111 0.000000 0.000000 57.69230 5.633794 2.663738 28.15754
112 0.000000 0.000000 62.50000 6.795963 3.193871 34.02467
113 0.000000 0.000000 67.64710 8.054142 3.775641 40.40481
114 0.000000 0.000000 73.17070 9.746208 4.554210 48.94939
115 0.000000 0.000000 79.11390 11.34150 5.284872 57.06648
116 0.000000 0.000000 85.52630 13.52062 6.278598 68.08844
117 0.000000 17.84320 100.0000 20.37860 10.78489 97.61968
118 0.000000 49.87470 100.0000 27.85940 24.01923 99.17497
119 0.000000 60.26470 100.0000 32.49948 32.06326 100.7538
120 23.84380 70.00780 100.0000 39.29486 42.14373 102.3144
121 0.000000 17.71540 81.33500 12.99611 7.383223 60.42207
122 0.000000 29.77390 100.0000 22.19709 13.99063 97.98956
123 0.000000 40.43760 100.0000 24.66922 18.37692 98.49755
124 25.70000 48.75530 100.0000 29.06987 24.20010 99.35651
125 2.796400 2.796400 2.796400 0.286649 0.292913 0.362332
126 3.378400 3.378400 3.378400 0.348120 0.362930 0.446481
127 5.172400 5.172400 5.172400 0.473383 0.487880 0.592038
128 5.787000 5.787000 5.787000 0.553689 0.586002 0.658736
129 6.410300 6.410300 6.410300 0.586960 0.621562 0.695522
130 7.042300 7.042300 7.042300 0.689916 0.721801 0.824881
131 7.683200 7.683200 7.683200 0.774256 0.809383 0.928401
132 8.333300 8.333300 8.333300 0.816995 0.855428 0.974139
133 8.992800 8.992800 8.992800 0.909824 0.935317 1.133074
134 9.661800 9.661800 9.661800 1.001668 1.035056 1.220242
135 10.34060 10.34060 10.34060 1.066558 1.104379 1.309941
136 11.02940 11.02940 11.02940 1.197385 1.237988 1.507228
137 11.72840 11.72840 11.72840 1.351413 1.400532 1.686490
138 12.43780 12.43780 12.43780 1.503172 1.569499 1.793955
139 13.15790 13.15790 13.15790 1.635545 1.723585 1.964181
140 13.88890 13.88890 13.88890 1.707856 1.801763 1.995625
141 14.63100 14.63100 14.63100 1.857656 1.934072 2.185535
142 15.38460 15.38460 15.38460 2.015683 2.112262 2.412861
143 16.14990 16.14990 16.14990 2.229587 2.332481 2.642796
144 16.92710 16.92710 16.92710 2.412948 2.541280 2.784211
145 17.71650 17.71650 17.71650 2.559274 2.669650 3.016906
146 18.51850 18.51850 18.51850 2.771319 2.906338 3.318814
147 19.33330 19.33330 19.33330 3.022801 3.169806 3.597444
148 20.16130 20.16130 20.16130 3.273459 3.381055 3.776004
149 21.00270 21.00270 21.00270 3.607707 3.769546 4.266161
150 21.85790 21.85790 21.85790 3.816893 3.973607 4.601219
151 22.72730 22.72730 22.72730 4.139683 4.311721 4.865171
152 23.61110 23.61110 23.61110 4.417261 4.634232 5.238558
153 24.50980 24.50980 24.50980 4.698702 4.885040 5.470713
154 25.42370 25.42370 25.42370 5.170454 5.416184 6.039888
155 26.35330 26.35330 26.35330 5.501724 5.800980 6.424354
156 27.29890 27.29890 27.29890 5.961031 6.242468 6.866035
157 28.26090 28.26090 28.26090 6.303387 6.627367 7.307177
158 0.000000 0.000000 0.000000 0.103330 0.108503 0.119182
159 12.11140 15.63450 0.000000 1.455860 1.879046 0.467847
160 31.25000 31.25000 31.25000 7.717876 8.109782 8.953555
161 32.28230 32.28230 32.28230 8.157318 8.545327 9.509211
162 33.33330 33.33330 33.33330 8.789801 9.138177 10.24021
163 34.40370 34.40370 34.40370 9.291395 9.761232 10.71982
164 35.49380 35.49380 35.49380 10.01319 10.56227 11.65997
165 36.60440 36.60440 36.60440 10.60498 11.16207 12.36384
166 37.73580 37.73580 37.73580 11.19676 11.76188 13.06773
167 38.88890 38.88890 38.88890 12.10852 12.67726 14.18082
168 40.06410 40.06410 40.06410 12.71521 13.30809 14.82921
169 41.26210 41.26210 41.26210 13.52015 14.18583 15.74338
170 42.48370 42.48370 42.48370 14.54297 15.24728 16.89076
171 43.72940 43.72940 43.72940 15.56980 16.28729 18.06528
172 45.00000 45.00000 45.00000 16.53206 17.34976 19.29952
173 46.29630 46.29630 46.29630 17.51472 18.27627 20.49699
174 47.61910 47.61910 47.61910 18.51674 19.39618 21.73361
175 48.96910 48.96910 48.96910 19.91843 20.97010 23.07245
176 50.34720 50.34720 50.34720 20.92154 21.92770 24.24278
177 51.75440 51.75440 51.75440 22.32937 23.52682 25.69678
178 53.19150 53.19150 53.19150 23.91492 25.17471 27.43409
179 54.65950 54.65950 54.65950 24.91163 26.34850 28.90163
180 56.15940 56.15940 56.15940 26.40922 27.72539 30.85312
181 57.69230 57.69230 57.69230 27.83098 29.23773 32.55797
182 59.25930 59.25930 59.25930 29.68299 31.11744 34.70092
183 60.86140 60.86140 60.86140 31.48686 33.07212 36.84931
184 62.50000 62.50000 62.50000 33.49178 35.15641 38.88661
185 64.17620 64.17620 64.17620 35.69157 37.62530 41.71004
186 65.89150 65.89150 65.89150 37.44529 39.35854 43.33451
187 67.64710 67.64710 67.64710 40.05389 42.12182 46.47847
188 69.44440 69.44440 69.44440 42.22684 44.35900 49.17533
189 71.28510 71.28510 71.28510 45.12232 47.33964 52.46746
190 73.17070 73.17070 73.17070 47.74179 49.97317 55.85987
191 75.10290 75.10290 75.10290 50.47865 53.05966 58.30786
192 77.08330 77.08330 77.08330 53.56131 56.39339 61.92904
193 79.11390 79.11390 79.11390 56.59137 59.59414 65.23070
194 81.19660 81.19660 81.19660 59.94696 63.09534 69.31060
195 83.33330 83.33330 83.33330 62.95164 66.27492 73.03858
196 85.52630 85.52630 85.52630 66.91661 70.43316 77.71139
197 87.77780 87.77780 87.77780 71.20402 74.86406 82.81934
198 90.09010 90.09010 90.09010 75.44387 79.28876 87.89958
199 92.46570 92.46570 92.46570 79.78046 83.83845 93.49711
200 94.90740 94.90740 94.90740 84.67679 88.75778 98.78979
201 44.09980 73.26260 59.29380 32.13617 41.52164 36.63714
202 45.66090 73.63210 69.52420 35.28379 43.32289 49.24854
203 57.17610 83.94630 100.0000 56.94280 62.65063 105.5320
204 0.000000 17.07780 65.02500 8.522793 5.286310 37.97606
205 21.35780 23.85780 66.92410 11.07334 7.788280 40.11012
206 0.000000 20.19650 36.23870 3.591453 3.489859 11.23149
207 39.34460 22.40560 41.52080 9.047727 6.816231 14.99638
208 48.29580 22.74980 73.52990 18.57543 11.55362 50.57012
209 81.58030 0.000000 100.0000 41.46499 21.29767 98.98703
210 100.0000 0.000000 100.0000 54.64312 28.77455 99.65184
211 100.0000 26.30890 100.0000 57.17719 33.27923 100.1652
212 82.81140 35.29420 0.000000 27.52201 20.73916 2.648259
213 100.0000 36.66650 0.000000 40.36004 28.66112 3.695095
214 35.87150 0.000000 19.17090 4.339999 2.442852 3.406537
215 36.93420 0.000000 27.58730 5.164022 2.845605 6.432917
216 20.70950 0.000000 40.92200 3.999980 2.021476 13.67019
217 22.21110 40.79270 42.09750 10.04767 12.11311 16.30254
218 32.25100 63.14910 66.28360 25.42055 31.09222 42.76827
219 58.50520 66.12390 68.87910 35.29408 38.36891 47.56862
220 100.0000 69.86160 78.60890 65.03545 57.57148 63.52350
221 52.77590 14.44410 0.000000 9.469322 6.357080 0.898182
222 67.83360 20.55770 0.000000 16.43006 11.10904 1.413265
223 48.96910 0.000000 0.000000 7.421452 4.245339 0.585360
224 52.76100 0.000000 13.83220 8.985920 5.082255 2.327880
225 56.17110 0.000000 60.48450 16.14197 8.476558 33.02995
226 100.0000 39.18750 79.37280 52.37524 34.97592 61.55003
227 100.0000 79.51430 78.95080 71.41562 68.51367 66.08257
228 100.0000 88.42110 100.0000 85.45011 82.71660 108.1589
229 25.63490 0.000000 53.27310 6.570487 3.255246 24.09968
230 63.62530 0.000000 74.08540 22.83671 11.87478 51.22967
231 74.36290 32.79190 83.35840 34.49961 22.52986 67.31204
232 0.000000 14.09660 12.94580 1.102257 1.470491 1.846993
233 0.000000 16.57440 23.73510 1.957090 2.186206 4.982389
234 0.000000 27.51860 36.18650 4.705640 5.465879 11.43316
235 0.000000 47.80250 60.33400 14.40807 16.97683 34.41309
236 21.53230 49.89480 64.04070 17.40687 19.55576 38.84670
237 39.04240 76.72270 100.0000 46.32709 50.83300 103.9603
238 5.172400 0.000000 0.000000 0.241263 0.184405 0.139537
239 3.968300 3.968300 3.968300 0.374909 0.390747 0.486009
240 4.566200 4.566200 4.566200 0.447360 0.460825 0.561727
241 35.26040 16.23260 23.71770 5.455801 4.128069 5.150417
242 56.65500 23.39090 38.73460 14.32936 10.15350 13.52864
243 71.54250 42.08920 49.45420 26.96510 22.09882 23.28680
244 0.000000 67.38150 46.32170 20.75377 31.53472 23.03456
245 0.000000 67.94550 66.76810 25.02830 33.81514 43.67407
246 0.000000 83.63960 85.84440 41.04831 54.10521 76.86066
247 0.000000 87.10860 100.0000 49.32790 61.24595 106.2828
248 0.000000 38.26680 78.55050 16.23432 13.97477 57.93659
249 0.000000 48.49250 81.02020 20.30962 20.10339 62.77711
250 67.85920 18.89630 49.63420 20.22480 12.64671 22.30190
251 100.0000 24.17290 59.83070 43.90826 26.85115 34.46666
252 0.544700 0.544700 0.544700 0.149893 0.156136 0.179360
253 1.096500 1.096500 1.096500 0.191450 0.195823 0.234452
254 25.17470 100.0000 20.68500 44.33846 73.55269 16.73472
255 54.01770 100.0000 36.28720 52.79457 78.11280 24.28653
256 84.20900 100.0000 37.92340 67.82048 86.42103 26.23710
257 100.0000 100.0000 40.99750 79.16740 92.67874 29.17987
258 100.0000 100.0000 56.09590 81.63862 93.81238 41.68318
259 23.53420 0.000000 67.34400 9.440982 4.544475 40.24606
260 44.07200 0.000000 77.64900 16.50013 8.214656 55.49277
261 67.69010 38.33200 100.0000 38.96074 25.83218 100.1315
262 75.63480 82.92780 100.0000 64.74934 66.20083 105.5549
263 0.000000 38.61690 32.38990 6.838050 9.660498 10.20174
264 0.000000 41.21140 47.74360 9.732374 11.99714 21.19893
265 65.62700 42.43790 83.74270 32.91337 24.55577 68.43318
266 100.0000 58.27710 86.00440 61.50674 48.00000 75.09497
267 100.0000 62.31010 100.0000 69.32233 54.28555 104.3933
268 0.000000 100.0000 51.05800 45.73049 73.99778 33.97690
269 0.000000 100.0000 77.10590 51.97520 76.84428 66.04557
270 0.000000 100.0000 88.61970 55.81997 78.58503 85.75319
271 0.000000 100.0000 100.0000 60.24780 80.54015 108.5906
272 26.82810 100.0000 100.0000 62.27823 81.68370 108.6377
273 26.67440 25.05320 40.95630 6.948628 6.178912 14.41075
274 29.00710 36.21820 48.36760 10.83738 10.98577 21.48512
275 59.73980 51.91130 73.51550 30.58137 27.41554 53.05382
276 66.41050 61.82190 100.0000 47.33366 41.31906 102.6210
277 0.000000 0.000000 92.46570 16.30344 7.526148 82.24195
278 0.000000 0.000000 100.0000 19.18756 8.796112 96.90675
279 29.56230 21.33710 100.0000 22.89366 12.64088 98.12345
280 44.92840 46.79680 100.0000 32.69116 25.26203 100.3297
281 84.79120 66.54720 100.0000 60.11549 51.57065 103.4831
282 100.0000 75.87540 100.0000 76.73718 67.42293 105.9160
283 0.000000 69.91060 33.27660 20.36768 33.08780 14.59379
284 14.36450 86.70820 33.71800 32.75371 53.40202 18.83334
285 58.59830 76.94180 19.65240 34.46069 46.37753 11.35912
286 76.50730 76.84770 37.84460 44.66219 51.89371 20.09239
287 28.22700 33.38350 0.000000 6.059465 7.793255 1.270825
288 29.07130 48.46180 39.01110 13.25949 17.10945 15.09217
289 63.63490 52.80640 42.24570 26.13044 26.38480 18.94164
290 52.49270 34.91440 0.000000 12.62563 12.05668 1.750989
291 65.12310 55.05580 16.26990 25.11228 26.89259 7.011329
292 79.29620 62.47420 26.22590 36.73673 37.77966 11.46634
293 100.0000 77.44190 68.46330 66.87301 64.32483 50.86145
294 100.0000 88.10820 69.02290 74.62280 77.83920 53.30896
295 83.96600 0.000000 17.23090 24.20022 13.67661 4.546819
296 100.0000 0.000000 41.41330 38.33312 21.45517 16.78067
297 100.0000 24.20740 49.71100 41.91076 26.02824 24.07652
298 0.000000 60.05750 18.74030 13.90249 23.30617 7.179255
299 0.000000 65.40070 73.43830 25.78890 32.41479 54.13583
300 0.000000 71.13850 85.45410 32.76896 39.71619 74.20435
301 47.70520 100.0000 100.0000 67.11899 84.35137 108.8779
302 78.41290 100.0000 100.0000 80.39947 91.71871 109.3064
303 82.86920 47.75860 0.000000 31.29588 27.33884 3.694128
304 100.0000 49.27880 0.000000 44.38261 35.70819 4.836366
305 100.0000 59.91280 31.93220 50.42041 44.05272 14.75419
306 100.0000 65.72550 45.90410 55.33856 50.25834 25.07302
307 0.000000 1.655600 0.000000 0.155223 0.194089 0.156636
308 1.655600 1.655600 1.655600 0.216405 0.226040 0.263741
309 2.222200 2.222200 2.222200 0.259616 0.269663 0.334428
310 100.0000 0.000000 0.000000 35.46905 20.15555 2.197094
311 100.0000 21.83350 0.000000 37.46763 23.63315 2.823831
312 100.0000 32.37850 26.96110 40.56655 27.44723 9.616018
313 100.0000 42.38800 40.29370 44.72363 32.81949 17.82676
314 0.000000 0.000000 0.000000 0.103817 0.109013 0.119938
315 18.34410 7.137400 0.000000 1.353529 1.117470 0.348348
316 28.39700 65.45450 84.63710 31.54816 35.27757 71.89954
317 48.70330 68.43880 100.0000 44.19552 43.80659 103.2639
318 47.96570 0.000000 22.61160 7.828800 4.381045 4.750776
319 64.82570 28.70710 27.44550 17.33300 13.02087 7.760326
320 30.56390 18.57630 0.000000 3.944192 3.680460 0.671427
321 34.38860 48.69860 0.000000 11.83916 16.54111 2.537317
322 45.27090 58.49730 39.08680 20.98005 26.12870 16.79791
323 47.89650 69.41350 81.66880 37.38930 41.36536 67.18985
324 48.35430 50.56870 58.16580 21.92102 22.43606 32.19014
325 76.69710 74.23830 63.33940 47.48660 50.83779 43.05000
326 87.15550 78.60200 100.0000 68.78579 64.94484 106.0720
327 46.59510 0.000000 100.0000 25.63648 12.35575 98.04333
328 64.98740 0.000000 100.0000 32.61280 16.29623 98.27875
329 0.000000 10.58460 33.14560 2.376911 1.710670 9.590790
330 0.000000 19.24730 46.93700 5.129389 4.045102 19.56755
331 0.000000 39.69840 64.54630 12.89351 12.95763 39.05587
332 78.97710 100.0000 85.11930 74.98249 89.33494 80.71763
333 33.40050 29.77650 17.05650 6.858644 7.396962 3.618934
334 33.21140 37.08200 20.02650 8.726029 10.40000 5.126174
335 32.21290 77.15000 29.94820 27.66732 42.55189 14.31399
336 0.000000 100.0000 0.000000 41.45634 72.02262 11.93177
337 0.000000 100.0000 20.84430 42.33018 72.42453 16.46030
338 26.26350 100.0000 72.94500 52.99146 77.50920 60.59521
339 0.000000 28.02960 21.63010 3.474255 5.003034 4.728157
340 0.000000 35.47510 36.71490 6.542077 8.487474 12.53208
341 0.000000 70.11790 100.0000 37.93504 41.41639 102.7595
342 0.000000 78.26690 100.0000 43.00393 50.27705 104.2332
343 24.41730 79.89060 100.0000 45.73234 53.15504 104.5346
344 40.97040 40.95040 0.000000 10.69157 12.75826 1.930667
345 54.44600 46.97990 0.000000 16.89709 18.77302 2.741053
346 65.68260 57.21540 0.000000 25.75278 28.59033 4.112800
347 100.0000 61.75310 0.000000 49.49276 44.70014 6.174972
348 100.0000 74.44720 22.15740 57.68427 57.72225 13.29395
349 100.0000 85.97370 39.95150 67.31131 72.24009 24.63622
350 25.45750 78.29480 0.000000 25.87152 42.65718 6.713842
351 64.83300 83.55010 0.000000 41.08255 55.60125 8.633361
352 15.29250 25.55990 0.000000 2.983822 4.309876 0.785369
353 29.23980 29.23980 29.23980 6.854476 7.234126 7.983942
354 30.23600 30.23600 30.23600 7.193554 7.506940 8.504104
355 0.000000 43.51870 15.97750 7.148727 11.74421 4.488934
356 0.000000 51.74120 39.69150 12.17722 17.88803 15.78829
357 35.81750 100.0000 55.14250 50.47698 76.52639 38.90784
358 49.05880 100.0000 69.31360 57.40571 80.04615 55.88519
359 76.39920 100.0000 69.80170 69.18557 86.56913 57.29613
360 100.0000 100.0000 70.26670 85.01559 95.33513 58.91279
361 100.0000 100.0000 81.39790 88.37288 96.87551 75.94463
362 100.0000 100.0000 90.76610 91.57971 98.32023 92.20595
363 70.26090 0.000000 62.50090 22.74716 12.15548 35.90604
364 100.0000 0.000000 73.73800 45.43423 24.68510 52.83639
365 100.0000 29.01300 89.29820 53.53741 32.29125 79.47144
366 100.0000 47.82600 100.0000 62.97103 43.27242 102.3702
367 84.67660 51.78870 38.45260 36.47474 31.73358 16.73196
368 100.0000 54.80560 42.96230 49.50861 40.62506 21.38099
369 100.0000 66.45260 57.11490 57.56147 51.54621 35.34236
370 46.80110 0.000000 37.88660 8.995122 4.864149 12.52284
371 66.16960 0.000000 46.86480 17.69604 9.650626 19.88275
372 76.29470 13.39270 46.26490 23.71084 14.07075 19.57035
373 27.16920 100.0000 0.000000 43.73711 73.27112 12.03600
374 48.97570 100.0000 0.000000 48.95340 76.17214 12.53713
375 90.03980 100.0000 100.0000 87.86886 95.83761 110.4514
376 97.41780 97.41780 97.41780 89.33695 93.73670 103.8637
377 1.655600 0.000000 0.000000 0.145012 0.131792 0.126798
378 3.378400 0.000000 0.000000 0.190314 0.156641 0.133146
379 39.00600 0.000000 11.30320 4.817135 2.749321 1.689072
380 71.03230 0.000000 23.34180 17.18371 9.664570 5.746292
381 100.0000 0.000000 51.40180 39.87700 22.16389 24.64152
382 100.0000 0.000000 61.93000 42.15647 23.18369 36.26037
383 0.000000 0.000000 1.655600 0.125550 0.119168 0.231613
384 10.55930 0.000000 11.34050 0.711773 0.423528 1.323815
385 24.05400 0.000000 27.05640 2.870163 1.548361 6.211103
386 38.84640 17.59020 46.67430 9.328727 6.211997 19.33849
387 43.35080 32.35100 50.50700 13.51883 11.28919 23.29041
388 48.32460 43.40930 78.02330 24.64179 20.46757 58.22865
389 0.000000 82.64970 52.59750 31.68791 49.16451 31.36602
390 0.000000 84.29080 76.66450 38.56028 53.70708 61.32598
391 26.70720 100.0000 82.83290 55.96028 78.86216 75.57592
392 50.51540 100.0000 90.20310 64.34707 83.24890 89.23904
393 64.34030 100.0000 100.0000 73.20821 87.72021 109.2718
394 0.000000 100.0000 35.68850 43.62687 73.01889 23.15330
395 49.61250 100.0000 48.62880 53.23736 78.17302 32.76185
396 71.33140 100.0000 56.45750 63.42488 83.66970 41.12431
397 31.76830 65.05930 0.000000 18.90025 29.31706 4.499977
398 82.50730 84.79990 0.000000 51.29950 62.26004 9.519136
399 100.0000 86.25440 0.000000 64.88369 71.52889 10.78993
400 23.21510 5.926700 9.042800 1.986249 1.376476 1.174452
401 26.77660 19.85090 24.68340 4.465678 4.029892 5.581822
402 33.27530 53.19640 34.51630 15.47260 20.59005 12.90697
403 0.000000 78.60480 21.66880 24.81297 41.99238 11.24558
404 30.39300 100.0000 35.18900 46.40507 74.54742 23.11977
405 100.0000 20.08660 16.56270 37.84993 23.53514 5.847897
406 100.0000 21.19210 30.24120 38.94115 24.23178 10.66428
407 100.0000 33.25030 43.05570 42.60709 28.57633 19.36811
408 80.49990 22.63150 26.16390 24.80221 16.25219 7.744249
409 85.12210 24.95580 48.57400 30.85381 19.80309 22.63746
410 79.19470 0.000000 86.23460 34.59404 18.06423 71.83485
411 86.91670 20.64420 100.0000 46.67606 26.21672 100.0882
412 12.67220 89.77990 55.53390 38.45453 59.23167 36.56982
413 10.98090 90.77320 75.36920 43.55021 62.30412 60.73684
414 0.000000 29.35480 12.88280 3.361716 5.390499 2.475215
415 12.00550 42.73510 22.52450 7.829152 11.91233 6.237959
416 11.51260 64.14010 34.72670 18.16109 28.44425 14.57718
417 18.06590 66.33910 43.61780 20.70196 30.82941 20.57579
418 38.04750 12.05500 0.000000 4.933576 3.539635 0.612891
419 38.59070 30.00080 0.000000 7.423727 7.759803 1.206193
420 44.40860 35.49120 12.72130 10.51692 11.03600 3.280681
421 63.11290 48.28050 62.07780 27.52062 24.44109 37.12807
422 74.70720 50.42530 65.46060 34.90430 29.66200 41.98184
423 17.02000 12.37300 19.29570 2.189790 1.929214 3.516213
424 24.79930 13.17210 21.12740 3.378452 2.662235 4.181446
425 47.59020 18.96650 24.06360 9.076177 6.552997 5.421918
426 47.74450 19.63650 30.34240 9.832161 6.982597 8.270335
427 26.34950 0.000000 10.45730 2.293827 1.327540 1.295420
428 25.61240 0.000000 100.0000 20.64779 9.595076 97.28882
429 51.64610 21.32090 100.0000 28.76427 15.88360 98.62904
430 39.32190 11.17180 58.09270 10.85363 6.121510 29.91478
431 46.31240 19.82880 57.61350 13.50642 8.665765 29.65795
432 46.25010 36.88670 61.08420 17.78237 14.75542 35.23161
433 14.06280 44.53910 53.39300 12.45177 14.79865 26.36343
434 33.06910 45.18930 55.35090 15.54151 16.67570 28.76211
435 45.23310 55.45850 83.88910 29.87866 28.40150 69.12338
436 58.09490 60.89710 90.60260 39.61856 36.75573 83.41025
437 31.05940 18.45140 62.44810 10.73330 6.739389 35.27580
438 35.29270 27.94180 72.93470 15.75163 10.97504 49.86238
439 36.42770 72.50990 79.89950 35.65908 42.70133 64.88750
440 34.71020 91.17290 89.45670 51.63158 66.71225 85.59447
441 52.44880 92.34110 89.91930 57.55916 71.11429 86.73470
442 83.04080 67.38860 50.99060 44.92912 45.23258 28.49827
443 100.0000 76.83330 55.87480 63.70689 62.58466 36.09076
444 100.0000 86.61210 54.94440 70.30828 74.33894 37.23977
445 0.000000 0.000000 0.000000 0.104226 0.109400 0.120602
446 0.000000 40.10680 24.63140 6.564888 10.06165 6.787065
447 12.47670 41.83150 31.55980 8.288319 11.75325 9.918406
448 37.84090 77.86550 67.34640 35.67617 47.07621 47.40595
449 36.89740 85.84500 79.86130 44.74740 58.46293 66.92084
450 0.000000 53.77500 58.88650 16.43609 20.96941 33.22940
451 0.000000 54.41040 73.05890 20.38278 23.22844 51.74052
452 0.000000 60.21910 85.91760 27.24048 29.78308 73.70444
453 29.76840 33.08650 53.24610 11.22685 10.23646 25.81635
454 41.05860 41.88750 61.03840 17.74687 16.54277 35.53450
455 60.32700 50.00540 81.54840 32.54745 27.51714 65.33872
456 60.45330 76.94380 100.0000 53.33228 54.76329 104.6214
457 11.90100 18.12720 38.86430 4.179694 3.468099 13.20902
458 13.47670 27.83670 45.54940 6.728575 6.561267 18.47968
459 35.57300 32.21760 45.74520 10.73365 9.831756 19.14406
460 48.84150 32.86120 87.47880 25.36722 17.15414 74.41621
461 56.23470 41.75700 89.59700 30.80597 22.81941 78.77145
462 0.000000 7.655400 11.63070 0.656431 0.738126 1.540964
463 9.660500 8.250800 13.84190 1.084763 0.992710 1.939030
464 18.23060 14.10530 27.41060 2.943865 2.414293 6.544974
465 66.95410 15.08740 64.53600 22.70453 13.13169 38.86646
466 78.40210 22.93760 69.10470 30.79918 18.77548 44.75274
467 0.000000 9.803100 21.88510 1.283573 1.141400 4.299624
468 0.000000 27.00140 62.78820 9.491709 7.605506 35.92374
469 0.000000 29.76480 82.24370 15.59093 11.07530 64.24598
470 21.81490 45.21410 84.45580 21.64958 19.30634 68.96212
471 15.12010 14.38520 71.30110 10.75251 6.033853 47.10407
472 28.17840 17.57330 85.89240 16.94011 9.391303 69.86741
473 26.41760 35.15610 100.0000 25.20022 17.15707 99.24049
474 49.06620 35.94190 100.0000 31.06101 20.66257 100.1030
475 49.10920 58.82020 100.0000 39.19215 34.84390 102.0961
476 91.43120 43.42040 7.932500 35.56523 28.09627 5.145318
477 100.0000 49.46210 17.81660 45.09082 36.06195 8.440982
478 66.33890 0.000000 12.42190 14.28220 8.092969 2.505885
479 75.09230 10.39590 14.66580 19.37772 11.68721 3.609603
480 86.00730 15.52500 37.82220 28.66674 17.38085 13.69675
481 81.39540 0.000000 37.73290 24.66214 13.74068 13.21035
482 83.62030 0.000000 49.84600 27.58795 15.19896 22.53386
483 100.0000 0.000000 87.16120 49.57951 26.53966 74.13754
484 13.06770 0.000000 19.08900 1.228492 0.674800 3.245798
485 27.15310 25.52310 58.19480 10.14648 7.746074 30.25236
486 27.70910 39.94750 65.67520 15.37999 14.33948 40.41539
487 47.19630 60.69810 76.31360 31.12931 32.54228 58.14634
488 68.10790 68.78810 76.62770 43.41720 44.30993 59.67638
489 78.71420 76.90670 85.80190 57.00474 57.69734 77.12361
490 7.015400 13.92420 6.198100 1.143657 1.516947 0.942446
491 17.45240 17.71260 8.082700 2.239277 2.533826 1.329229
492 17.23170 45.44470 8.837000 8.510147 13.38476 3.341577
493 38.73220 47.29060 21.05690 13.17595 16.65459 6.500411
494 81.93280 50.67320 23.40320 32.86071 29.25521 9.272808
495 80.77670 76.11600 21.36370 45.20055 51.78341 12.13221
496 100.0000 86.09790 22.83950 65.90110 72.01330 16.08839
497 43.86130 42.39600 13.32050 12.48129 14.39076 4.106430
498 65.60040 44.82520 22.26360 21.74654 20.52762 7.491889
499 68.01280 57.99910 72.20550 36.23125 33.73880 52.14778
500 77.83560 57.54980 77.23970 42.91032 37.30327 59.71206
501 8.923500 59.53580 42.97090 16.51889 24.36994 19.56133
502 0.000000 100.0000 64.66030 48.68098 75.30554 49.18314
503 47.52950 100.0000 79.30660 59.56400 80.96850 69.69295
504 19.90880 14.18890 0.000000 2.054650 2.044350 0.480170
505 24.11270 22.69790 0.000000 3.476658 4.036390 0.734536
506 43.03240 61.32070 24.46700 20.58569 27.81419 9.617350
507 57.05060 81.36950 48.80080 40.22571 52.96441 28.42608
508 81.58670 81.73690 59.48680 54.83562 61.17310 40.37130
509 55.01550 54.46370 9.101100 20.44851 24.38153 5.063019
510 100.0000 63.00010 20.48730 51.32398 46.77082 10.96158
511 12.46960 5.629100 17.52460 1.289414 0.920777 2.751700
512 20.06130 8.029500 20.89140 2.315385 1.617829 3.847382
513 28.30310 8.607600 28.07150 4.031995 2.583886 6.927989
514 35.33410 7.520600 44.45410 7.182382 4.076641 16.95995
515 57.56770 8.635800 44.79230 14.06380 8.104215 17.62955
516 70.40780 23.51960 100.0000 37.19390 21.16336 99.13543
517 85.61190 39.41500 100.0000 49.59725 32.45820 101.0056
518 10.29370 32.41790 37.59120 6.360316 7.663697 12.77355
519 9.994000 43.32570 41.03880 9.608401 12.71698 16.00592
520 20.99970 52.42710 59.24710 17.32187 20.83781 33.77052
521 27.20010 59.54460 100.0000 34.19483 32.57850 101.5411
522 22.18240 90.95810 100.0000 53.90412 67.50328 107.4472
523 78.96800 32.90210 33.00820 26.24980 19.17440 11.46513
524 83.29030 42.12060 53.83250 34.49440 26.34189 27.96709
525 16.36130 0.000000 9.036100 1.092352 0.640067 1.027463
526 22.28100 0.000000 17.44130 2.010967 1.138073 2.614388
527 21.52910 51.78530 52.07710 15.56022 19.60449 26.02687
528 33.26460 61.25940 58.39910 22.99925 28.70709 33.77822
529 43.64710 62.35810 63.96970 27.34638 31.79075 40.79974
530 61.92660 72.62590 80.36990 44.23687 47.46827 66.15794
531 86.51120 79.47280 93.08700 66.63244 65.08916 92.32549
532 40.09640 0.000000 49.21060 8.873996 4.628543 21.13656
533 43.87590 0.000000 63.77570 12.99695 6.612699 37.12300
534 100.0000 24.07030 69.70380 46.42347 28.01400 47.36912
535 42.62080 22.40230 0.000000 7.312268 6.162746 0.947576
536 55.98690 25.79990 0.000000 12.15654 9.639454 1.321655
537 79.71950 37.17350 22.00030 26.78593 20.75230 7.245443
538 80.83680 57.08280 57.21390 39.44492 35.71519 33.28702
539 90.80930 58.40920 66.70430 48.74183 41.48170 44.67435
540 43.60530 21.38360 16.68960 7.866814 6.324996 3.367504
541 52.19240 42.04320 23.06370 15.62144 16.08605 7.094030
542 58.94620 57.44680 48.86270 26.92119 28.90875 24.64731
543 63.91590 57.38420 53.54590 29.94010 30.51654 28.99613
544 15.99410 73.13620 28.31840 22.84745 36.86935 12.73281
545 22.42490 77.05640 38.93120 26.99934 41.82630 19.61045
546 39.66850 80.78610 46.89910 34.07903 48.88184 26.76851
547 43.15400 88.58370 45.20990 40.66107 59.48761 27.19724
548 52.41170 88.56130 55.18350 45.11242 61.78629 36.27749
549 62.00070 88.57130 89.47260 58.58954 68.31769 85.69598
550 16.88160 16.40040 11.81440 2.213188 2.395021 1.907394
551 25.18440 18.58750 14.27640 3.485652 3.331687 2.342349
552 36.13910 25.17220 16.94470 6.453450 6.146971 3.338085
553 48.80930 39.99160 31.06360 14.47764 14.51037 10.18942
554 58.98070 42.91380 32.95490 19.15281 18.32379 11.60951
555 59.81930 91.65120 100.0000 64.33899 73.98971 108.0049
556 0.000000 50.93760 48.10750 13.26380 18.00446 22.71487
557 14.13400 75.15550 60.67510 28.98009 41.32647 39.11862
558 50.07760 79.45500 11.86460 33.27348 48.13534 9.779996
559 90.05250 89.35260 17.17720 60.77204 71.95848 14.72427
560 47.61450 70.99170 0.000000 26.19923 37.56215 5.785224
561 50.25380 71.86600 49.75270 31.83262 41.03384 27.05237
562 50.14910 85.43920 90.10670 51.95883 61.71201 86.46624
563 79.61930 85.15820 93.00020 65.91863 69.05953 92.94049
564 61.70920 20.39130 30.98470 15.20642 10.26053 9.187969
565 68.10420 22.65340 41.99030 19.77223 13.08386 16.21789
566 83.84950 47.62710 66.76590 39.39273 30.94037 43.23199
567 29.66040 0.000000 84.17770 15.55537 7.417461 66.96814
568 59.02540 0.000000 85.53430 24.60664 12.44119 70.09249
569 60.84300 27.45080 90.10010 29.50999 18.00993 79.46420
570 64.59690 50.22860 100.0000 41.40475 31.69485 101.3512
571 69.89610 71.86050 100.0000 54.59922 51.84792 104.3104
572 36.33550 58.92820 80.10610 28.07260 29.49481 62.96624
573 0.000000 34.66040 50.00780 8.390282 9.067605 22.99711
574 7.173000 42.99690 60.89130 13.24389 14.39295 35.06001
575 14.28740 48.27290 72.71270 18.47820 19.16053 50.95303
576 12.31980 52.36260 91.45770 26.10632 24.78773 82.58024
577 82.69780 0.000000 60.66990 29.49521 16.00638 34.60456
578 83.42730 0.000000 75.44550 33.80625 18.01275 54.20277
579 91.81530 14.00700 81.16110 42.02806 23.64781 64.07049
580 100.0000 19.59390 79.39790 48.46644 28.15874 60.73633
581 100.0000 48.79220 88.98480 58.94987 41.84523 80.77767
582 69.89880 53.01850 59.29970 31.91726 29.29338 34.57257
583 73.27450 54.62040 82.44670 40.80731 34.41808 67.65014
584 14.23050 0.000000 28.87650 2.060651 1.067406 6.937250
585 33.06310 0.000000 36.86110 5.507989 2.918283 11.86563
586 55.09290 0.000000 49.33270 13.44496 7.186898 21.83222
587 31.69990 15.08620 28.04760 5.116678 3.731184 7.111205
588 39.98050 28.97460 40.74920 10.35817 8.970526 14.83370
589 54.82920 37.77990 51.66480 18.75430 15.91418 24.94342
590 69.36190 41.51140 62.44460 28.30469 22.38210 37.53222
591 68.45230 84.84380 75.27520 53.65108 62.46517 60.56841
592 0.000000 54.73630 30.63790 12.43191 19.58950 11.09837
593 36.31790 69.37960 32.42120 24.14738 35.05969 14.47711
594 47.47700 77.87570 37.19620 32.97840 46.28902 19.10209
595 15.19180 53.75170 15.74470 11.79169 18.92532 5.708622
596 22.37700 62.79310 27.52790 17.54762 27.20276 10.44973
597 33.24660 64.31310 44.38620 22.21365 30.60412 21.32469
598 77.56010 67.26660 83.22260 49.94161 47.23681 71.13555
599 81.48060 67.43970 91.66630 55.42518 49.96663 87.13327
600 52.31900 23.61540 52.11870 14.93227 10.27283 24.42305
601 54.98100 35.76210 58.04700 19.57897 15.63547 31.56870
602 89.90480 90.61060 100.0000 79.56992 81.54214 108.3987
603 100.0000 100.0000 100.0000 95.28529 99.91307 111.3390
604 15.24620 20.74050 34.13800 4.183067 3.937792 10.33270
605 43.64970 36.28560 33.76370 12.17688 12.11024 11.07255
606 28.02760 18.75320 8.829100 3.813931 3.599674 1.617933
607 43.11510 28.03230 10.04120 8.580043 7.892526 2.438618
608 54.03420 29.41550 10.28870 12.36401 10.49124 2.790785
609 57.24160 36.98080 11.61160 15.26260 14.09238 3.708201
610 12.80850 28.22990 22.68220 4.167539 5.506380 5.156667
611 19.75190 28.18610 26.22080 5.065409 5.977074 6.672327
612 21.50640 28.34750 38.41600 6.599634 6.707152 13.22531
613 55.60030 29.66330 66.49310 20.58834 14.47043 41.18432
614 69.63430 41.79040 75.54320 32.34587 24.47654 55.66166
615 19.76640 6.204500 33.50550 3.314099 1.973809 9.698551
616 23.15820 16.65860 36.93050 4.841136 3.672663 12.00996
617 24.75160 42.93160 38.54130 10.79923 13.43173 14.42542
618 40.75270 43.96150 48.91900 15.78361 16.38464 22.76240
619 9.337800 23.50190 73.62290 12.22660 8.124780 51.00424
620 25.37700 27.58450 81.57980 16.47906 11.05261 62.65855
621 69.27420 77.85490 80.59160 51.05503 55.25389 68.24062
622 78.74360 86.30590 80.70260 62.07247 68.49688 70.11275
623 17.54500 33.57990 18.26500 5.431272 7.560744 4.266942
624 54.82200 33.98790 29.60290 14.70915 12.86255 8.922243
625 58.03650 37.66880 39.94130 18.03625 15.70740 15.44138
626 61.52880 47.88350 50.15670 24.49886 23.02116 24.70646
627 65.78160 68.96930 60.15570 38.27024 42.18585 38.09837
628 66.30750 74.60070 69.45280 43.66974 48.64258 50.52676
629 67.06270 84.16010 82.36970 54.78557 62.55748 71.96126
630 20.11030 35.47440 27.14480 6.772970 8.741418 7.588659
631 34.38400 44.40510 27.14930 11.57522 14.51857 8.378707
632 40.12290 47.55820 36.10200 14.81838 17.48097 13.45491
633 59.81020 58.38950 36.09960 26.21714 29.38125 15.52558
634 69.15630 60.29060 42.87190 32.09633 33.81798 20.68228
635 85.22280 69.45830 66.81330 50.68557 49.44106 46.19713
636 90.60100 77.68690 71.24480 60.80000 60.93786 55.10568
637 100.0000 79.72150 89.68310 75.41849 70.41194 86.33639
638 86.37940 0.000000 30.00950 26.94764 15.13109 9.508521
639 87.69740 16.90240 31.39780 29.38664 18.06924 10.41786
640 52.50590 0.000000 32.15790 10.17703 5.603418 9.179214
641 52.93810 43.28880 48.64780 19.25453 18.17773 22.98417
642 54.64760 47.88870 56.62900 22.79791 21.89697 30.85790
643 64.76530 30.42440 35.07790 18.52551 14.04413 11.83331
644 77.24310 36.25660 41.57630 27.13318 20.43412 17.18132
645 90.17230 40.10400 44.76930 37.02864 27.33136 20.59308
646 56.07100 18.36810 19.05770 11.78772 8.128026 4.422347
647 70.21160 21.61230 27.64430 18.85450 12.60872 7.701276
648 100.0000 56.51480 64.69780 54.44136 43.83160 43.05471
649 100.0000 57.33730 74.81150 57.42817 45.59261 56.74915
650 56.36980 49.21820 43.43320 21.96666 22.53686 18.98778
651 81.03610 49.40240 49.61690 35.25751 29.86928 25.22052
652 83.20070 21.88370 0.000000 25.26267 16.47894 1.998815
653 82.46590 26.91760 19.47860 26.06341 17.75201 5.853085
654 92.94900 53.31960 18.72560 40.96363 35.39749 8.726333
655 100.0000 54.62570 53.77920 51.30293 41.49948 30.44103
656 27.01600 9.151700 0.000000 2.611348 1.932216 0.431261
657 33.53740 17.30110 13.09120 4.761598 3.907444 2.217403
658 42.69520 49.47900 11.36950 14.63078 18.50597 4.574721
659 50.55790 59.88540 18.00920 22.06088 28.20537 7.698528
660 50.46080 100.0000 20.82160 50.39441 76.86049 17.06896
661 70.60660 100.0000 23.20800 58.59667 81.37889 18.41922
662 69.19030 100.0000 43.24100 60.09912 82.00715 29.63511
663 68.82240 100.0000 76.16120 66.96884 85.12654 65.94602
664 0.000000 11.77870 48.79140 4.745787 2.928615 21.10609
665 0.000000 28.14400 51.32940 7.263657 6.880980 23.43830
666 0.000000 83.39270 65.51900 35.17714 51.49101 46.44756
667 9.051600 86.88290 84.74820 43.79253 58.86840 76.01776
668 25.36320 100.0000 91.38860 58.79023 80.06043 91.60409
669 31.26610 62.33490 73.72550 27.42115 31.59367 55.07538
670 78.28530 68.45010 76.47070 49.02956 47.76390 60.20012
671 90.84290 70.20610 76.48520 57.96466 53.86469 61.08358
672 70.90270 90.14830 29.13160 50.66859 66.69050 17.95769
673 73.02030 91.74890 74.87340 61.53122 73.39976 62.03906
674 88.52290 100.0000 80.71050 80.02858 92.22017 74.27670
675 89.50610 100.0000 91.75920 84.11928 94.07054 93.95644
676 28.37300 54.29150 48.10820 16.99944 21.75105 23.44134
677 51.78420 59.10410 48.77900 25.35838 29.24198 24.70278
678 60.76240 74.50740 49.43760 37.30557 45.84011 27.54328
679 65.15640 77.56790 63.15420 43.90856 51.49272 43.17079
680 58.06260 11.35430 11.29660 11.43248 7.174850 2.411980
681 59.63670 22.09770 11.08350 13.38014 9.560209 2.658527
682 65.71730 47.54110 14.00540 22.43335 22.07500 5.579115
683 66.82450 100.0000 0.000000 55.77262 79.90591 13.16279
684 83.76870 100.0000 0.000000 64.93071 84.99081 13.66952
685 0.000000 84.47440 38.96050 30.77762 50.18385 21.14198
686 20.85620 100.0000 46.05790 46.48011 74.41415 30.56782
687 23.04200 100.0000 62.16260 49.83465 75.97386 46.63307
688 58.91830 100.0000 61.47760 59.08692 81.10519 46.59948
689 63.34390 100.0000 83.55560 67.03768 84.92100 77.65959
690 72.77030 100.0000 92.28230 74.67676 88.80812 95.01160
691 44.26420 84.43630 0.000000 34.06839 52.25580 8.233813
692 44.61620 84.08820 29.95660 35.49445 52.58588 16.18947
693 23.21070 83.02270 18.94220 29.93849 48.93288 11.92425
694 43.05690 88.99160 68.30330 45.64695 62.21450 51.06230
695 0.000000 66.42690 56.25470 22.09230 31.44354 32.50505
696 23.28170 69.72990 72.99880 29.79441 37.69654 54.54586
697 21.97240 71.73830 87.89420 35.66681 41.89466 79.52811
698 79.21120 50.18160 59.93930 36.11749 30.34130 35.70229
699 86.86190 65.56920 59.12350 47.72569 45.32507 37.46158
700 100.0000 68.41800 68.05250 61.40173 54.87765 49.22116
701 10.50470 7.960600 0.000000 0.795291 0.841184 0.331923
702 15.16770 7.796100 6.564900 1.220837 1.067763 0.893515
703 19.39680 35.48920 43.51090 8.531191 9.550580 17.18659
704 44.17150 56.79000 52.59780 22.20816 25.81031 27.45337
705 49.16620 56.63360 59.26370 25.04225 27.14203 34.63697
706 54.59810 60.25460 69.33080 31.24646 32.57991 48.38278
707 64.27690 65.03390 79.52200 40.48681 40.27343 63.95257
708 14.50130 36.13260 31.56110 6.813328 9.013054 9.481942
709 13.72260 50.84480 33.20540 11.79924 17.42578 12.01329
710 21.62700 66.40730 51.94880 22.60144 31.81108 27.78941
711 100.0000 69.72010 89.18190 68.99092 59.48711 83.43785
712 28.65970 9.834600 49.46500 7.041335 4.025645 21.62832
713 61.40660 21.32540 70.88540 22.94603 13.90273 47.98508
714 70.13810 29.24140 70.96610 28.13976 18.53831 48.44421
715 76.99140 28.07890 53.53710 27.22529 18.18662 26.89830
716 78.10070 36.64390 67.89530 33.10679 23.43304 43.99929
717 78.70220 47.79320 75.03580 38.99746 30.56141 55.37331
718 82.11680 53.40040 100.0000 52.16242 39.50174 102.6320
719 15.42450 75.47570 73.11900 32.27619 42.87308 55.46912
720 27.68040 81.00450 82.55130 40.80271 52.17121 71.74552
721 34.87530 85.88800 91.71400 48.62431 60.17575 89.67171
722 41.33250 88.13980 100.0000 55.33248 65.63876 107.3922
723 10.87350 24.21730 27.25280 3.684828 4.337905 6.866272
724 21.71820 26.42630 31.27630 5.451461 5.760225 8.927971
725 44.67760 50.57720 64.22730 22.44157 22.59649 40.29939
726 91.28070 76.89570 63.81150 58.60374 59.25908 45.15480
727 66.57280 72.17080 41.14280 37.38856 44.55320 21.40459
728 71.47780 83.33240 47.36410 47.98527 58.88413 28.75714
729 71.94060 83.20920 57.11470 49.84603 59.66805 37.69658
730 76.36890 83.78500 65.73090 54.84325 62.90071 47.81410
731 89.97110 83.63770 70.45360 64.36355 67.88904 55.39429
732 100.0000 100.0000 100.0000 95.29255 99.88225 111.5078
733 31.81770 35.86950 41.99410 10.29751 10.71471 16.27322
734 41.19040 41.98340 53.39040 16.03707 15.80370 26.65107
735 100.0000 41.31780 61.59830 48.17517 33.79892 37.92666
736 69.33910 0.000000 38.42240 17.87196 9.883621 13.26005
737 73.38630 13.67350 37.88990 20.96395 12.68801 13.52033
738 78.48870 62.89380 40.61680 38.26086 38.80133 19.80106
739 91.58430 79.63760 57.14250 59.34372 62.13167 37.76000
740 100.0000 88.70710 80.50280 78.49474 80.07135 71.50718
741 100.0000 89.15400 90.51070 82.45727 82.29702 89.98756
742 61.83730 0.000000 26.76270 13.62356 7.622988 6.824394
743 72.62980 11.93520 30.17520 19.39846 11.67699 9.001298
744 89.37630 57.47860 35.41640 41.84577 37.78145 16.07272
745 100.0000 73.83950 39.62240 58.92972 57.69566 22.11566
746 21.79220 53.65820 0.000000 11.99304 19.11565 2.984938
747 48.19690 57.34510 0.000000 19.07329 24.85262 3.714618
748 81.58580 59.39500 0.000000 35.57076 35.50514 5.076995
749 81.23590 65.99810 15.18030 39.28446 41.44663 9.255620
750 86.68590 100.0000 21.70290 67.61601 86.37821 18.63961
751 86.49070 100.0000 52.77190 71.52271 88.17662 38.46297
752 88.51050 100.0000 67.24180 76.14977 90.44558 54.28329
753 66.79180 45.20680 0.000000 21.61130 20.78865 2.902442
754 0.000000 0.000000 0.000000 0.104768 0.110015 0.121212
755 19.27190 38.60360 0.000000 6.326284 9.585493 1.561382
756 91.13500 38.28310 28.82280 35.22896 26.07882 10.40133
757 100.0000 46.89270 29.97630 45.00955 34.89984 12.44631
758 68.24950 34.17070 0.000000 19.21919 15.61975 2.069115
759 79.59290 41.35160 12.06060 27.52425 22.58604 5.141045
760 81.56240 72.94700 75.18120 53.21366 53.22741 58.99404
761 0.000000 19.27750 11.39710 1.635064 2.452827 1.805606
762 0.000000 23.44880 24.20700 2.938705 3.834582 5.465176
763 41.76860 24.49140 24.96240 8.302113 6.912903 6.053244
764 90.35680 28.28150 60.45540 37.14873 23.67352 34.98168
765 100.0000 43.33690 71.89110 51.52676 36.19639 51.76309
766 7.798200 4.785900 22.90260 1.343004 0.891165 4.474505
767 12.56720 20.05000 55.51190 7.336814 5.209236 27.78075
768 27.27580 33.60700 71.61240 15.54912 12.34088 49.31945
769 49.55360 34.59020 74.84090 21.82158 15.96961 53.62357
770 59.27550 70.62010 85.78940 43.90329 45.69072 76.45264
771 12.83050 49.27530 41.49100 12.20051 16.95986 16.95829
772 31.10140 72.83420 44.58610 26.80894 38.92629 23.29064
773 47.36140 80.32310 56.44650 37.82498 50.59066 36.08739
774 56.99950 80.87950 65.50460 43.22568 53.63332 46.52616
775 81.56830 9.925400 23.02690 23.89195 14.16024 6.392658
776 83.97140 12.57820 55.55370 29.84314 17.34113 29.00901
777 93.50140 10.20380 64.16300 38.38732 21.74709 39.62398
778 94.28660 49.86570 75.87710 50.42137 38.17497 57.28220
779 61.90740 10.40550 33.50290 14.81742 8.856752 10.19787
780 87.66720 28.00490 38.40260 31.73636 21.04065 15.28763
781 88.68300 36.14630 57.57610 37.47010 26.08096 32.12403
782 70.97980 52.74270 91.99980 42.39134 33.80251 86.47773
783 73.15440 62.97690 93.27350 49.26345 43.68997 90.44483
784 11.61540 75.82650 54.28870 27.75017 41.10555 32.13245
785 28.24320 85.82220 61.14640 38.32089 55.39700 41.95967
786 29.91200 86.55920 70.45060 41.46712 57.63232 54.36835
787 54.21940 88.02830 74.82070 49.89501 63.32789 60.47758
788 65.41860 91.87480 83.00310 60.42894 72.52258 75.42055
789 6.958900 24.33090 13.50620 2.604205 3.815740 2.294338
790 9.097000 33.43450 21.69460 4.929499 7.146633 5.187345
791 61.33740 53.02480 57.60880 27.84138 27.11189 32.72008
792 87.42050 56.38870 77.21470 48.51996 40.01053 60.39216
793 91.50900 62.91850 76.46190 54.03978 46.96618 60.15172
794 92.73430 83.65790 81.14410 69.06438 70.20372 71.27246
795 11.77680 26.86570 9.242800 3.218093 4.775992 1.808782
796 25.40080 29.38870 10.36060 5.189058 6.432676 2.247642
797 26.18700 41.20500 58.35690 13.91653 14.18917 32.24324
798 34.97530 49.42420 69.33160 20.94982 21.26374 46.97478
799 36.86190 34.66960 64.99210 15.66110 12.81203 40.03637
800 40.98180 37.25220 82.92250 22.48948 16.93210 66.32971
801 36.93610 30.83030 91.83800 23.08611 15.14334 83.03492
802 40.22420 48.71570 91.55310 29.13971 24.69696 83.52925
803 20.93750 70.61930 80.33970 32.17170 39.38434 65.60313
804 40.68380 77.13760 90.49870 43.60873 50.12482 85.90827
805 6.749600 34.39370 66.37590 12.12563 10.82879 40.88678
806 8.963700 43.07690 89.16010 21.77987 18.33841 77.89790
807 9.770800 68.05450 89.66890 33.26943 37.98927 82.49013
808 65.35820 11.68470 19.17060 15.17820 9.361138 4.558829
809 70.62960 26.28930 20.75150 19.25462 13.69525 5.533481
810 87.47380 62.11310 44.93150 44.19269 41.53674 23.46397
811 91.72080 71.83640 44.72400 52.20411 52.51863 25.13353
812 33.01250 26.65010 7.474500 5.837247 6.233407 1.747110
813 50.17670 39.84830 6.745200 13.59800 14.23353 2.997023
814 89.89900 63.82130 21.32540 44.20983 43.15790 10.80515
815 90.60290 63.72250 32.35950 45.55352 43.60501 15.52461
816 90.49960 74.70510 35.27970 51.81630 54.09423 19.02812
817 11.51700 9.506700 30.01890 2.412929 1.679527 7.965780
818 14.06790 24.22770 49.13850 6.807662 5.793871 21.56470
819 14.04190 38.21070 50.98790 10.08385 11.13748 23.87381
820 15.20090 42.11870 74.11980 17.00359 15.82971 52.93045
821 4.720700 11.96130 9.571200 0.985885 1.264344 1.225148
822 10.43960 19.58090 12.34110 2.043877 2.678780 1.993326
823 18.20280 25.72890 18.57320 3.885524 4.900008 3.657674
824 35.36830 29.06270 24.49200 7.470039 7.553454 5.995563
825 47.40120 32.60460 35.43530 12.57730 11.20231 11.72262
826 47.16480 11.15410 8.164300 7.679864 4.997708 1.590618
827 67.10360 15.83080 8.994000 15.69922 10.10949 2.503571
828 69.23570 81.54900 16.27420 42.66061 54.98860 11.94863
829 83.77840 90.39270 28.03710 57.80246 71.08222 17.75998
830 84.83370 90.04140 40.85840 59.78079 71.72846 25.66407
831 55.61830 68.09230 8.916100 27.75733 36.66128 7.255647
832 74.80630 76.71520 9.311400 41.91750 50.66541 9.639365
833 76.06450 90.89130 10.63000 52.77042 68.76619 13.10407
834 76.56740 91.49620 100.0000 71.93819 77.89983 108.5657
835 9.542600 59.65760 72.85120 23.23042 27.52920 53.40189
836 12.65490 91.16970 93.63920 50.56357 65.93953 94.56931
837 10.06580 58.11740 51.25260 17.15466 23.69309 26.16810
838 35.41030 64.39890 54.77170 24.46932 31.73887 31.01519
839 27.00120 89.22700 8.277200 34.76287 57.31894 11.04218
840 39.07890 89.84090 21.05580 38.12561 59.51531 14.24988
841 72.94680 90.06560 42.11070 53.32107 68.04045 26.31355
842 84.15970 91.01610 55.12610 62.73023 73.92740 38.35988
843 56.09800 17.08560 57.93040 16.82276 10.17887 30.97728
844 69.49280 18.21360 81.18550 28.83262 16.48652 62.88343
845 81.98750 22.75880 81.50740 36.87127 21.83284 64.91131
846 30.40590 8.261700 16.20840 3.533526 2.376737 2.687285
847 36.00820 13.13180 16.59580 5.003255 3.608948 2.919385
848 43.92980 14.59410 15.84140 7.172937 4.981744 2.951860
849 43.41840 34.80250 21.47280 10.66904 10.85155 5.551082
850 53.81330 34.66320 20.61770 13.87400 12.62543 5.609255
851 65.45570 37.66920 31.75700 20.40212 17.13309 10.85733
852 67.21520 40.39790 40.26850 22.83798 19.32144 16.13546
853 77.55540 42.20950 39.72820 29.12855 23.76139 16.58632
854 57.71220 28.08390 19.67130 13.78828 10.96734 5.043194
855 64.50580 40.59620 26.60660 20.14795 18.09734 8.556228
856 74.02610 52.09830 36.19560 30.07858 28.34564 15.26246
857 58.66260 89.90000 9.751600 43.85730 62.71797 12.19467
858 56.69570 90.32850 24.85320 43.89797 62.98282 15.70998
859 58.43600 91.03600 47.78990 48.06331 65.83186 30.17968
860 74.91530 92.12300 57.84100 58.55116 72.57130 40.45677
861 22.46180 7.046200 76.84800 12.41925 6.216934 54.93184
862 43.09090 11.22880 84.04110 19.08019 9.986022 66.92017
863 44.83780 23.29240 90.19720 23.15103 13.56148 79.18523
864 46.76250 12.57830 42.40770 10.49498 6.393979 15.93471
865 47.93200 50.92870 44.95000 19.85950 21.88850 20.59339
866 13.59250 5.577000 54.96810 6.052199 3.121619 26.63727
867 18.94210 14.12410 60.49840 8.281745 4.879781 33.20485
868 41.68290 26.94400 63.79440 14.83156 10.54434 37.96120
869 62.32680 58.36900 66.34850 32.61418 32.21131 43.46254
870 77.14280 83.24520 72.67890 56.93938 63.31819 57.97938
871 88.34380 89.43860 77.37440 69.91806 76.09872 66.24058
872 92.73840 89.48500 82.62640 74.11047 78.23425 75.57363
873 26.75830 10.39400 40.47090 5.328193 3.272431 14.16730
874 30.04310 24.32460 48.22650 8.754944 6.875907 21.29706
875 45.56370 39.05060 48.09610 15.68675 14.77304 22.21653
876 45.44480 44.43250 36.39720 15.47961 16.66814 13.79129
877 52.19550 44.23120 43.65220 18.59871 18.41509 18.48735
878 64.34920 45.70890 68.62480 29.08895 24.34784 45.88152
879 48.77990 27.00520 43.54100 13.03263 10.00330 17.07961
880 64.62550 31.36350 48.16490 20.76734 15.34161 22.07430
881 90.23770 48.51730 54.59550 41.65945 33.15102 30.35557
882 91.68920 48.60520 63.97420 44.71094 34.69372 41.30345
883 52.00600 32.92550 42.06160 15.23800 12.79946 16.56303
884 55.70880 40.48030 70.82540 24.44718 19.40426 48.92135
885 81.01790 42.43230 82.06350 41.01808 29.41674 66.67442
886 88.83560 49.00750 93.93390 53.03087 38.39273 90.59341
887 4.646400 6.743100 16.23480 0.911315 0.796589 2.456511
888 10.22460 12.96420 22.51550 1.946910 1.814531 4.629294
889 9.663300 30.35970 42.20950 6.482255 6.981530 16.20402
890 34.75740 52.42690 58.60490 19.39415 22.05505 33.33699
891 36.72120 53.79810 65.79920 22.28001 24.12245 42.29798
892 44.75450 61.09000 68.91190 28.41964 31.52637 47.56240
893 56.99440 74.98470 75.00710 41.71523 47.73336 58.06271
894 51.65490 50.81640 22.70770 18.68529 21.51933 8.075456
895 63.12590 53.84330 28.00970 24.79177 26.36132 10.57462
896 62.63660 61.06800 26.00530 27.87537 32.21733 10.64061
897 35.15480 34.69060 11.59460 7.961109 9.232530 2.979699
898 37.13010 36.26810 27.74800 9.926804 10.77664 7.945575
899 63.46310 42.51970 52.08730 23.92649 20.54435 26.05739
900 89.33630 43.79000 78.00420 45.52630 32.74260 60.61289
901 91.83470 58.11140 88.75570 55.93266 44.44382 80.99723
902 9.717600 35.50380 12.29810 5.140504 8.084284 2.892246
903 24.26180 45.02430 29.67610 10.46956 14.26801 9.670836
904 40.49550 54.27850 44.90370 19.11474 23.00951 21.01673
905 43.29850 63.64160 49.04800 25.01129 31.64275 25.38975
906 49.71700 66.31830 62.90480 31.28093 36.43195 40.43452
907 50.32180 73.18140 78.57290 39.54319 45.27006 63.37954
908 45.97640 70.81520 90.42670 41.34213 44.38528 85.37459
909 72.93800 73.28340 90.73930 53.36016 52.64681 85.96916
910 3.561600 13.92090 29.92560 2.379300 2.084538 7.819764
911 9.201600 22.10660 30.62450 3.556186 3.785352 8.516818
912 9.725700 30.25550 30.08340 4.990002 6.303143 8.628358
913 21.55700 32.56850 34.30850 7.012416 8.095420 10.87617
914 30.78410 43.58870 48.34770 13.32505 14.92032 22.36525
915 52.66490 44.20180 61.86800 22.20392 19.92112 37.13388
916 55.62980 53.03780 67.02410 27.72193 26.73077 43.83019
917 75.87170 65.71650 56.13130 40.93900 41.93089 33.75217
918 79.83030 73.33990 55.36530 47.35149 50.45890 34.29304
919 31.31590 53.22150 13.94610 13.58781 19.76560 5.353364
920 34.59580 54.17070 25.72230 15.29631 21.10938 9.126818
921 47.69340 56.66630 29.25480 20.16453 24.94345 11.28367
922 66.47900 64.43510 50.95800 34.59384 37.72284 27.85093
923 36.77650 10.58720 7.438500 4.797055 3.294111 1.291211
924 37.80350 9.423800 34.26840 6.519408 3.951562 10.27922
925 34.45330 9.864600 67.15560 11.76953 6.285108 40.74754
926 35.85510 20.27670 77.09040 15.91212 9.495255 56.14937
927 35.34890 42.69880 77.43980 20.89865 18.25200 57.87505
928 19.95130 56.35440 75.78970 23.23902 25.67567 56.34066
929 53.85060 57.47460 78.74390 32.41868 31.33316 61.60479
930 66.61700 62.58130 84.98590 42.51028 39.92940 74.10420
931 19.47070 4.504000 14.97150 1.745928 1.143468 2.142154
932 29.25600 15.14260 16.45540 3.876213 3.172464 2.857033
933 56.30520 46.87720 16.88230 18.49164 19.68742 5.911914
934 56.34660 64.34950 41.53000 28.75423 34.61752 19.98045
935 55.85060 68.34810 53.24220 32.32547 38.78422 30.27022
936 56.27210 78.08320 70.24730 42.30658 50.74439 52.64332
937 15.51660 77.79000 46.76610 28.15789 43.08071 26.00307
938 17.83940 80.17110 92.93600 42.58521 51.78055 91.54921
939 15.41620 35.29480 57.14630 10.81004 10.56725 30.51309
940 14.93970 35.46420 91.83630 21.01038 15.21628 82.74577
941 12.29600 11.03180 86.57870 15.13297 7.626726 71.85726
942 14.98180 24.64120 90.63540 18.35610 11.15030 79.95488
943 74.30160 41.80020 92.73000 40.68744 28.52793 86.75472
944 12.26600 44.77990 47.99370 11.51108 14.40975 22.00799
945 33.41390 50.51490 51.40590 16.93745 19.82721 25.55228
946 17.12460 12.14880 5.588700 1.656157 1.643490 0.882271
947 48.10000 19.96960 9.316700 8.835371 6.638175 2.056889
948 53.51950 25.56560 25.53580 12.31939 9.528446 6.708123
949 58.90530 67.90840 29.66450 30.06560 37.55090 13.65750
950 60.20710 77.46410 37.27390 37.58237 48.74819 19.47817
951 58.80450 87.58490 36.40710 43.79474 60.32713 21.19540
952 20.47690 61.88820 10.60250 16.06740 25.96529 5.765260
953 33.31810 65.27450 20.70450 20.09991 30.01626 9.015252
954 34.32950 75.79340 55.78580 31.09840 42.96194 34.21084
955 64.14740 92.70700 62.76450 54.93573 70.87171 46.30648
956 5.290500 51.78070 21.28710 10.67018 17.30845 6.823935
957 22.56910 56.56740 31.77970 14.81530 21.84381 12.02659
958 24.97110 56.66340 43.01980 16.62782 22.71784 19.37837
959 55.00190 67.01400 89.88540 41.66807 41.86752 83.48591
960 58.33520 80.53230 89.54950 51.00256 56.91350 84.61847
961 7.449700 11.95240 40.61950 3.641171 2.447262 14.32960
962 20.13720 17.24960 45.38900 5.892468 4.197721 18.47698
963 80.76660 22.73970 61.00070 30.52205 18.85868 35.79794
964 90.22220 25.94760 71.82180 39.89942 24.45476 50.70308
965 89.84330 34.43150 80.75580 43.91260 28.51301 64.05041
966 90.75710 36.00890 91.03130 48.67937 31.31793 83.22855
967 61.00640 31.71010 53.37200 20.29298 15.07178 26.51011
968 75.12310 38.39490 56.73990 29.66573 22.28205 31.51750
969 29.96910 5.901600 21.90020 3.744150 2.306355 4.539902
970 56.63370 10.63890 21.90380 11.40495 7.031675 5.002542
971 83.00740 41.25570 33.70970 31.32846 24.56454 12.99501
972 91.72130 46.99890 43.72380 40.03650 31.78387 20.52316
973 42.11830 23.52930 32.55070 9.017071 7.184521 9.809452
974 52.88940 27.53440 32.62640 13.01746 10.23871 10.11993
975 61.74890 32.19060 41.11820 18.53073 14.43590 15.98294
976 73.56740 33.15040 45.41940 25.20660 18.39773 19.92682
977 89.29370 56.82310 48.78650 43.47220 38.11656 25.84569
978 91.27330 59.95690 57.74540 47.80112 42.27717 35.03588
979 93.44230 69.71890 57.27270 54.74822 52.45120 36.42752
980 29.92150 41.81160 10.25030 9.075717 12.37781 3.248783
981 38.22770 47.24240 45.28870 15.48209 17.60919 19.68039
982 56.78650 64.17610 58.98140 31.93613 35.88397 35.83361
983 72.53100 67.83680 62.83490 41.71561 43.37239 41.64453
984 73.51980 29.26720 10.73860 21.03946 15.48477 3.513493
985 87.36150 31.43980 11.70600 29.91520 21.07970 4.677509
986 90.66480 41.93790 19.43630 35.45565 27.55071 7.776697
987 18.44570 89.04420 47.41680 36.92632 57.79107 29.32117
988 37.54690 90.55450 58.25430 43.28696 62.59206 40.09497
989 8.247900 66.86670 17.57230 18.08895 30.21180 8.133912
990 47.14250 71.65950 22.72080 27.74482 38.98194 11.17508
991 70.29880 78.93000 29.39070 41.83647 52.17279 15.50606
992 46.31600 47.84940 72.80330 24.49120 22.37473 52.16527
993 53.79680 51.89380 90.23740 34.05207 28.88065 81.83415
994 61.13950 12.53470 40.34910 15.34274 9.265384 14.62103
995 90.57450 11.04980 44.80250 32.41809 18.93103 19.30612
996 93.17740 11.70910 52.92960 36.00310 20.90329 26.65144
997 21.47390 19.79340 4.605300 2.839909 3.140798 1.006592
998 22.10290 24.17920 12.03420 3.748002 4.457823 2.266771
999 26.35910 25.18960 18.30090 4.800346 5.209564 3.783240
1000 27.90760 32.61850 26.10560 7.185284 8.261920 7.067619
1001 28.96280 38.62910 27.16560 8.947907 11.13150 7.988726
1002 29.77100 38.54770 37.31640 10.05602 11.46595 13.24798
1003 28.97560 49.01250 77.67100 22.09012 21.51635 58.77520
1004 34.84280 54.64990 90.01050 29.72778 27.91328 81.90741
1005 81.80340 89.44800 91.36100 70.17899 75.45893 90.70485
1006 100.0000 100.0000 100.0000 95.29792 99.85874 111.8479
1007 10.95940 17.62790 20.98460 2.329010 2.541266 4.313657
1008 27.08690 19.64140 32.59520 5.292467 4.347581 9.590452
1009 32.32830 19.52780 53.03670 9.158928 6.216776 25.06388
1010 55.01100 86.51310 81.15600 51.33418 62.82399 70.80436
1011 69.66750 86.69630 91.38040 61.31358 67.98427 90.05384
1012 44.99220 49.85630 31.56960 16.83496 19.88736 11.69636
1013 53.76010 56.73370 41.37170 23.71788 27.10393 18.46976
1014 73.03810 59.33980 57.90720 36.23244 35.07596 34.54880
1015 85.23040 63.63170 66.79270 47.71105 44.20080 45.76554
1016 87.39150 69.88820 81.98730 57.18514 52.94437 70.32786
1017 92.33080 78.22230 81.60060 65.10422 63.37978 71.11422
1018 80.10750 13.89310 9.283300 22.49093 13.84772 2.926059
1019 90.26620 21.41150 10.58830 30.22321 19.39227 4.058169
1020 91.75060 30.61770 31.23900 33.89040 23.03515 11.36743
1021 65.68740 33.47700 13.90970 18.17376 14.67699 4.097541
1022 66.09890 71.89590 54.31300 39.17373 45.10133 32.38159
1023 69.07630 79.34030 90.90330 55.43501 58.34008 87.64317
1024 91.75090 84.09940 90.46460 72.13534 71.90796 88.80425
1025 3.288400 13.20120 17.31150 1.352949 1.568863 2.811370
1026 9.756100 20.22320 18.32450 2.410480 3.002334 3.448488
1027 45.13110 31.95720 26.51790 10.78344 10.01745 7.341199
1028 75.60130 45.21570 27.19550 27.43868 23.92265 9.632809
1029 89.79100 48.61050 30.37530 37.90940 31.42791 12.43997
1030 68.65280 41.02940 10.71420 21.58352 19.18402 4.295619
1031 80.18720 52.74390 14.06470 32.03190 29.89472 6.880978
1032 90.12670 81.70020 7.657400 54.57350 61.65783 11.00240
1033 89.66960 84.05870 33.46340 57.62549 65.18979 19.90146
1034 92.35570 87.30100 46.88240 63.79883 71.66936 30.23536
1035 91.97080 89.65320 59.82530 67.71525 75.52669 43.51645
1036 92.13640 91.36410 70.70480 71.60079 78.79413 57.64669
1037 69.67800 63.91840 12.39990 31.92630 36.34486 7.823736
1038 74.63170 68.67510 27.66300 37.67611 42.40260 13.19055
1039 83.38140 73.29760 43.46820 47.39491 50.69376 24.03019
1040 13.78600 60.33770 59.12110 20.34274 26.80688 35.06840
1041 14.94040 60.48310 65.66110 21.95465 27.55287 42.92982
1042 10.93450 89.92230 65.65640 40.61057 60.25922 48.13505
1043 11.23410 94.20320 86.66300 50.39817 69.20582 81.38316
1044 31.75840 28.73930 36.66410 8.034762 7.638347 12.27777
1045 41.67550 34.10690 39.38930 11.72130 11.00801 14.54921
1046 31.49790 22.34030 22.37170 5.423209 4.959288 4.939950
1047 33.49600 22.95110 31.70890 6.870368 5.881229 9.186610
1048 33.47020 41.26470 34.48570 11.18657 13.07765 11.69201
1049 56.75570 42.07940 38.33490 19.04634 17.89976 15.28786
1050 53.95580 49.43980 34.80970 20.08070 21.65588 13.43051
1051 69.56420 53.00910 47.53640 29.83337 28.47909 23.61565
1052 79.05950 57.88880 48.30210 37.43952 35.26087 25.33767
1053 81.36010 80.57040 49.66510 51.90830 58.79898 30.25508
1054 83.57710 93.39670 70.22540 67.40595 78.32173 56.97690
1055 86.38240 95.06810 83.71910 74.58831 83.45248 78.11132
1056 12.72150 21.07360 7.852000 2.302599 3.127506 1.361712
1057 19.12700 31.78560 7.930200 4.777261 6.771839 1.990364
1058 25.37270 39.01440 16.89220 7.744981 10.53334 4.341448
1059 43.74120 42.13540 25.51150 13.14977 14.57503 7.804574
1060 62.71260 48.89860 31.55210 22.96879 23.07597 11.79423
1061 70.19800 48.58810 49.62940 28.87503 25.94582 25.08615
1062 72.59320 9.223100 55.72840 23.15393 13.13364 28.95081
1063 71.94670 11.95890 90.83850 33.29910 17.88166 81.38971
1064 79.45180 27.23740 91.95080 39.57437 23.61538 83.65162
1065 47.42650 8.619800 49.06780 11.48689 6.523138 21.64028
1066 54.00690 12.43440 77.69210 20.82031 11.36345 57.19598
1067 58.86800 14.01770 91.34570 27.47348 14.69486 81.76867
1068 11.52320 5.236500 37.12400 3.009174 1.686993 11.96542
1069 16.74450 10.91650 48.73790 5.590712 3.311600 21.42165
1070 17.64920 29.34060 60.09310 10.42813 8.759846 33.57745
1071 20.03060 67.38280 59.45360 24.79101 33.69766 36.75618
1072 51.43320 68.66790 59.13380 32.23423 38.71014 36.75778
1073 65.36220 84.93510 63.36060 49.75156 61.06641 45.63515
1074 72.17740 53.90540 8.053600 27.96359 28.24217 5.422508
1075 73.60740 54.77640 28.74640 30.25685 29.82336 11.47228
1076 71.59410 63.95190 35.09500 34.59523 37.68659 16.23567
1077 71.76570 70.57280 47.73900 40.07447 44.85879 26.68247
1078 40.32910 60.24480 9.406000 18.78818 26.49367 5.625745
1079 63.16160 67.03510 16.88120 30.74276 37.54822 9.030527
1080 91.15190 75.50800 15.46700 51.17056 54.86681 11.51625
1081 90.55220 12.95830 17.63270 29.87976 18.03081 5.440671
1082 92.91840 34.34810 51.03150 38.46956 26.45720 25.54738
1083 40.75040 8.900000 26.25210 6.634070 4.102356 6.357264
1084 42.14220 18.11010 34.81420 8.499540 5.972254 10.80489
1085 41.36030 27.10140 53.96040 12.59088 9.524907 26.54072
1086 63.93600 32.69930 62.86330 23.75027 17.03297 37.78573
1087 88.10010 37.26480 67.12930 39.68641 27.36408 43.67410
1088 85.82530 10.19370 70.16750 34.88615 19.53124 47.77535
1089 90.82160 13.70040 90.79170 45.35467 25.06905 82.66168
1090 24.71120 10.89700 7.273900 2.584808 2.032299 1.099573
1091 36.97190 19.16000 7.837100 5.639078 4.743417 1.561413
1092 92.08550 55.66770 8.455500 40.85186 36.43898 6.702258
1093 91.68470 67.44030 8.939000 46.64828 46.81496 8.710255
1094 8.021500 89.57080 23.48460 33.65972 56.64586 14.61550
1095 33.55590 90.52190 38.28990 39.13108 60.60915 23.08469
1096 18.88450 71.94360 12.03590 21.51719 35.44631 7.956898
1097 36.03340 73.91900 12.26950 25.30902 38.70383 8.511624
1098 30.78990 72.34170 68.06580 31.15955 40.35080 48.03482
1099 41.72510 76.91690 77.83970 39.04206 47.79559 62.99565
1100 16.77420 58.01820 87.98790 27.80731 28.64896 77.81019
1101 34.89250 63.08060 92.00440 34.81152 35.60539 87.69680
1102 21.30200 83.82460 74.82260 39.44678 53.98860 59.72761
1103 41.70720 93.33830 80.90210 52.40469 69.69292 71.37387
1104 2.699600 75.63440 66.23070 29.98874 42.13076 45.83040
1105 56.69770 89.91240 68.11470 50.83371 65.87346 52.06313
1106 78.94010 93.40310 88.90000 70.56044 79.46347 87.14069
1107 45.54950 4.647100 12.87080 6.849210 4.070022 2.178710
1108 48.82910 11.32780 34.10270 9.963500 6.111996 10.49429
1109 54.17800 20.54520 44.26360 13.97154 9.324467 17.78727
1110 64.01630 16.88130 55.23020 19.51387 11.82752 28.47635
1111 69.59870 28.11140 57.81440 24.09270 16.32078 31.36097
1112 71.96220 62.42550 65.63530 39.22905 38.50112 44.29690
1113 81.21280 78.06980 72.01750 55.58474 58.37409 56.67329
1114 11.26070 3.376200 9.078900 0.815701 0.616009 1.089070
1115 18.03380 7.196100 11.58950 1.562739 1.201219 1.659945
1116 22.08320 13.48010 15.29930 2.576597 2.257228 2.512036
1117 22.89320 29.82940 17.90280 5.224757 6.529898 3.926856
1118 22.19270 46.78050 20.14330 9.904087 14.55910 6.046982
1119 39.47870 65.76160 38.80140 23.67217 32.37540 17.97708
1120 50.38010 69.76480 38.62440 29.14435 38.34621 18.59192
1121 4.074000 72.80570 75.74050 31.11922 40.68202 58.87097
1122 10.76950 77.85150 85.16940 37.72565 47.75110 76.03151
1123 12.54020 32.05950 76.39060 14.88480 11.47082 55.71760
1124 29.57170 40.16650 89.98170 23.32661 18.03701 79.97940
1125 20.86940 11.71540 96.32210 19.76342 9.847598 92.22891
1126 45.41650 10.91330 94.17200 23.66590 12.05306 87.56864
1127 19.36860 8.044300 26.84540 2.716488 1.817452 6.458514
1128 31.86660 14.88890 37.20280 6.122023 4.173591 12.20829
1129 78.13350 26.68310 39.97840 25.48196 17.21944 15.44080
1130 30.69060 6.148600 9.138900 3.170299 2.073719 1.317798
1131 41.98050 8.763700 18.91550 6.374476 4.023428 3.679642
1132 52.41370 12.33830 27.74940 10.49649 6.607532 7.265569
1133 51.64930 11.48100 65.45710 16.46293 9.143046 39.77823
1134 73.53910 9.985700 73.90320 28.59219 15.70501 52.79642
1135 82.41450 55.12450 90.70870 49.56252 39.36436 84.58173
1136 20.05380 19.81110 27.61690 3.907017 3.705322 6.824715
1137 37.37950 27.06440 30.56610 8.234864 7.439085 8.874503
1138 61.07320 31.40150 80.50940 27.14961 18.06171 62.24461
1139 90.27320 66.52750 89.29630 59.90510 52.03031 83.76076
1140 93.52130 76.30210 92.51470 69.39816 64.07169 92.34504
END_DATA
CAL    

DESCRIPTOR "Argyll Device Calibration State"
ORIGINATOR "Argyll dispread"
CREATED "Tue May 26 12:27:02 2020"
DEVICE_CLASS "DISPLAY"
COLOR_REP "RGB"

BEGIN_ARGYLL_DISPCAL_ARGS
-v2 -qm -m -w0.3127,0.329 -gs -f1.0 -k0 -A4.0 -d1 -c1 -yn -P0.475468687675,0.649334945586,2.11251980983 -F -X "i1 DisplayPro, ColorMunki Display & Dell, DELL U2718Q (i1 Pro).ccmx"
END_ARGYLL_DISPCAL_ARGS


NUMBER_OF_FIELDS 4
BEGIN_DATA_FORMAT
RGB_I RGB_R RGB_G RGB_B
END_DATA_FORMAT

NUMBER_OF_SETS 256
BEGIN_DATA
0.00000000 0.00000000 0.00000000 0.00000000
0.00392157 0.00528323 0.00522148 0.00572726
0.00784314 0.01051610 0.01037360 0.01133470
0.01176470 0.01569930 0.01545780 0.01682600
0.01568630 0.02083350 0.02047540 0.02220480
0.01960780 0.02591950 0.02542770 0.02747450
0.02352940 0.03095790 0.03031590 0.03263840
0.02745100 0.03594850 0.03513850 0.03769040
0.03137250 0.04088230 0.03988250 0.04261990
0.03529410 0.04575880 0.04453780 0.04741800
0.03921570 0.05057170 0.04909810 0.05206270
0.04313730 0.05530680 0.05355650 0.05654760
0.04705880 0.05995800 0.05791530 0.06087230
0.05098040 0.06451520 0.06217530 0.06504290
0.05490200 0.06897620 0.06634320 0.06907640
0.05882350 0.07335200 0.07043190 0.07299270
0.06274510 0.07765430 0.07445350 0.07680760
0.06666670 0.08188860 0.07841940 0.08053650
0.07058820 0.08605930 0.08233800 0.08419100
0.07450980 0.09017890 0.08621810 0.08778260
0.07843140 0.09425680 0.09006460 0.09132340
0.08235290 0.09830570 0.09388110 0.09482830
0.08627450 0.10233500 0.09767250 0.09830400
0.09019610 0.10634400 0.10144300 0.10175800
0.09411760 0.11033000 0.10519300 0.10518900
0.09803920 0.11429600 0.10891700 0.10859800
0.10196100 0.11825000 0.11261000 0.11200500
0.10588200 0.12219300 0.11627500 0.11541200
0.10980400 0.12612900 0.11991300 0.11882100
0.11372500 0.13006400 0.12352400 0.12224000
0.11764700 0.13400000 0.12710700 0.12567900
0.12156900 0.13793100 0.13066200 0.12913500
0.12549000 0.14185800 0.13419000 0.13260800
0.12941200 0.14578400 0.13769600 0.13609400
0.13333300 0.14970400 0.14119100 0.13959700
0.13725500 0.15361800 0.14467400 0.14311600
0.14117600 0.15752600 0.14814400 0.14664700
0.14509800 0.16142600 0.15159700 0.15018600
0.14902000 0.16531500 0.15503000 0.15372500
0.15294100 0.16918900 0.15844800 0.15725500
0.15686300 0.17302800 0.16185400 0.16078100
0.16078400 0.17682900 0.16524700 0.16431100
0.16470600 0.18059100 0.16862900 0.16783300
0.16862700 0.18431100 0.17199700 0.17134300
0.17254900 0.18798700 0.17534900 0.17484000
0.17647100 0.19162000 0.17868200 0.17832300
0.18039200 0.19521500 0.18199400 0.18179300
0.18431400 0.19877400 0.18528800 0.18524900
0.18823500 0.20230200 0.18856400 0.18869700
0.19215700 0.20581300 0.19183200 0.19214000
0.19607800 0.20930700 0.19509600 0.19558400
0.20000000 0.21278900 0.19835600 0.19903500
0.20392200 0.21626200 0.20161200 0.20249200
0.20784300 0.21972800 0.20486400 0.20595600
0.21176500 0.22318800 0.20811700 0.20943000
0.21568600 0.22664400 0.21136800 0.21292100
0.21960800 0.23009800 0.21461800 0.21642800
0.22352900 0.23355000 0.21786900 0.21994800
0.22745100 0.23699900 0.22112200 0.22346700
0.23137300 0.24044700 0.22437800 0.22698100
0.23529400 0.24388500 0.22763700 0.23049600
0.23921600 0.24731100 0.23090000 0.23400900
0.24313700 0.25073100 0.23416700 0.23751900
0.24705900 0.25415800 0.23745100 0.24102300
0.25098000 0.25759400 0.24075100 0.24453000
0.25490200 0.26103900 0.24406500 0.24803900
0.25882400 0.26449700 0.24739500 0.25153800
0.26274500 0.26796700 0.25073600 0.25502600
0.26666700 0.27144900 0.25409100 0.25850500
0.27058800 0.27494400 0.25745800 0.26197800
0.27451000 0.27846000 0.26083900 0.26544500
0.27843100 0.28199600 0.26423600 0.26891700
0.28235300 0.28554900 0.26765200 0.27240500
0.28627500 0.28911800 0.27108600 0.27590700
0.29019600 0.29270400 0.27452800 0.27942000
0.29411800 0.29630800 0.27797200 0.28294100
0.29803900 0.29992900 0.28141400 0.28646000
0.30196100 0.30356500 0.28485800 0.28997400
0.30588200 0.30721600 0.28830600 0.29348200
0.30980400 0.31087800 0.29176000 0.29699200
0.31372500 0.31454800 0.29521500 0.30050100
0.31764700 0.31822200 0.29866900 0.30400000
0.32156900 0.32189700 0.30212300 0.30748100
0.32549000 0.32557100 0.30557700 0.31094800
0.32941200 0.32924200 0.30903200 0.31439300
0.33333300 0.33291700 0.31248700 0.31781600
0.33725500 0.33659500 0.31595000 0.32121500
0.34117600 0.34026700 0.31941900 0.32459500
0.34509800 0.34393300 0.32288200 0.32796800
0.34902000 0.34759400 0.32634100 0.33133600
0.35294100 0.35125200 0.32979400 0.33469300
0.35686300 0.35491200 0.33324300 0.33804100
0.36078400 0.35857600 0.33668500 0.34138400
0.36470600 0.36225100 0.34012500 0.34472300
0.36862700 0.36593800 0.34356500 0.34805600
0.37254900 0.36963600 0.34700400 0.35139000
0.37647100 0.37333900 0.35043900 0.35472700
0.38039200 0.37704900 0.35386700 0.35806900
0.38431400 0.38077000 0.35729200 0.36141200
0.38823500 0.38450700 0.36071300 0.36475300
0.39215700 0.38826500 0.36413300 0.36810300
0.39607800 0.39204400 0.36755500 0.37146700
0.40000000 0.39583500 0.37098400 0.37484500
0.40392200 0.39963600 0.37441800 0.37824600
0.40784300 0.40343900 0.37785600 0.38167300
0.41176500 0.40722700 0.38129900 0.38512000
0.41568600 0.41099900 0.38474100 0.38858500
0.41960800 0.41475200 0.38817700 0.39206800
0.42352900 0.41848600 0.39160400 0.39556500
0.42745100 0.42220900 0.39501900 0.39907800
0.43137300 0.42592500 0.39842600 0.40259800
0.43529400 0.42963300 0.40182900 0.40612000
0.43921600 0.43333100 0.40522900 0.40965300
0.44313700 0.43702000 0.40863000 0.41320200
0.44705900 0.44069900 0.41204100 0.41676900
0.45098000 0.44436700 0.41546000 0.42035900
0.45490200 0.44802800 0.41888800 0.42396700
0.45882400 0.45168500 0.42232400 0.42759100
0.46274500 0.45533800 0.42576900 0.43123300
0.46666700 0.45899200 0.42922200 0.43489200
0.47058800 0.46265400 0.43268000 0.43855500
0.47451000 0.46632300 0.43614700 0.44221400
0.47843100 0.46999700 0.43961800 0.44587100
0.48235300 0.47368200 0.44309000 0.44954100
0.48627500 0.47737900 0.44656700 0.45321500
0.49019600 0.48109500 0.45005400 0.45688700
0.49411800 0.48482800 0.45355100 0.46056200
0.49803900 0.48858300 0.45705800 0.46424500
0.50196100 0.49236100 0.46057200 0.46793800
0.50588200 0.49616000 0.46409200 0.47164200
0.50980400 0.49998500 0.46761900 0.47536100
0.51372500 0.50383500 0.47115600 0.47909600
0.51764700 0.50768700 0.47471300 0.48284800
0.52156900 0.51154100 0.47828600 0.48661900
0.52549000 0.51539500 0.48187400 0.49041500
0.52941200 0.51924900 0.48547600 0.49420700
0.53333300 0.52310100 0.48909300 0.49798900
0.53725500 0.52695000 0.49272500 0.50176200
0.54117600 0.53079100 0.49637500 0.50552600
0.54509800 0.53462000 0.50004400 0.50927600
0.54902000 0.53843600 0.50373200 0.51301200
0.55294100 0.54223900 0.50743700 0.51673200
0.55686300 0.54603300 0.51115900 0.52043100
0.56078400 0.54981800 0.51490300 0.52411200
0.56470600 0.55359300 0.51866700 0.52777800
0.56862700 0.55736300 0.52244900 0.53143600
0.57254900 0.56113600 0.52624600 0.53508800
0.57647100 0.56491100 0.53005000 0.53873100
0.58039200 0.56868500 0.53386000 0.54236600
0.58431400 0.57245200 0.53767400 0.54601400
0.58823500 0.57621300 0.54148800 0.54968200
0.59215700 0.57996500 0.54528900 0.55337400
0.59607800 0.58370700 0.54906700 0.55708300
0.60000000 0.58744500 0.55282300 0.56080200
0.60392200 0.59118100 0.55656000 0.56452000
0.60784300 0.59491600 0.56028300 0.56824000
0.61176500 0.59864700 0.56399600 0.57196500
0.61568600 0.60237500 0.56770300 0.57570000
0.61960800 0.60611500 0.57141000 0.57944100
0.62352900 0.60987000 0.57512800 0.58318200
0.62745100 0.61363700 0.57885700 0.58692700
0.63137300 0.61741100 0.58260100 0.59068300
0.63529400 0.62118900 0.58635700 0.59445100
0.63921600 0.62496500 0.59012100 0.59823100
0.64313700 0.62874100 0.59389300 0.60201700
0.64705900 0.63252300 0.59767400 0.60579600
0.65098000 0.63631200 0.60145900 0.60956700
0.65490200 0.64011200 0.60524700 0.61334500
0.65882400 0.64392800 0.60904000 0.61713200
0.66274500 0.64776500 0.61284300 0.62092800
0.66666700 0.65162200 0.61665600 0.62474500
0.67058800 0.65549700 0.62047200 0.62859500
0.67451000 0.65938500 0.62428600 0.63248800
0.67843100 0.66328500 0.62809800 0.63641900
0.68235300 0.66719600 0.63190800 0.64038000
0.68627500 0.67111400 0.63571400 0.64436600
0.69019600 0.67503200 0.63950100 0.64837700
0.69411800 0.67895000 0.64326500 0.65240600
0.69803900 0.68286600 0.64700400 0.65642200
0.70196100 0.68677800 0.65071400 0.66041900
0.70588200 0.69068000 0.65439500 0.66439300
0.70980400 0.69457400 0.65804900 0.66833600
0.71372500 0.69846600 0.66168300 0.67224000
0.71764700 0.70235800 0.66530000 0.67611200
0.72156900 0.70625100 0.66890500 0.67996700
0.72549000 0.71015000 0.67249700 0.68381400
0.72941200 0.71405800 0.67607400 0.68765900
0.73333300 0.71797500 0.67964600 0.69150800
0.73725500 0.72190000 0.68322000 0.69536000
0.74117600 0.72582800 0.68679900 0.69921700
0.74509800 0.72975100 0.69038300 0.70307800
0.74902000 0.73366300 0.69397200 0.70694200
0.75294100 0.73756800 0.69756800 0.71080400
0.75686300 0.74146700 0.70117800 0.71466200
0.76078400 0.74535900 0.70480200 0.71852300
0.76470600 0.74924200 0.70844300 0.72239300
0.76862700 0.75313200 0.71211100 0.72626900
0.77254900 0.75703900 0.71581000 0.73014900
0.77647100 0.76096600 0.71954100 0.73403300
0.78039200 0.76491900 0.72330400 0.73791700
0.78431400 0.76890600 0.72709700 0.74180200
0.78823500 0.77292200 0.73091500 0.74569000
0.79215700 0.77696400 0.73475000 0.74958300
0.79607800 0.78103200 0.73860000 0.75346600
0.80000000 0.78513600 0.74245700 0.75732200
0.80392200 0.78928300 0.74632500 0.76115600
0.80784300 0.79347900 0.75020700 0.76498900
0.81176500 0.79772500 0.75410200 0.76882900
0.81568600 0.80201400 0.75800800 0.77268400
0.81960800 0.80632200 0.76191700 0.77655100
0.82352900 0.81064800 0.76582800 0.78042600
0.82745100 0.81497900 0.76973900 0.78431000
0.83137300 0.81930900 0.77364900 0.78819800
0.83529400 0.82364200 0.77756500 0.79208900
0.83921600 0.82798500 0.78148800 0.79598100
0.84313700 0.83233800 0.78542200 0.79988200
0.84705900 0.83669400 0.78936300 0.80381100
0.85098000 0.84102800 0.79331800 0.80776800
0.85490200 0.84534200 0.79728600 0.81175600
0.85882400 0.84963700 0.80126800 0.81577300
0.86274500 0.85391900 0.80526800 0.81981500
0.86666700 0.85819200 0.80928600 0.82388000
0.87058800 0.86245500 0.81331200 0.82797500
0.87451000 0.86670300 0.81733100 0.83210500
0.87843100 0.87093500 0.82133700 0.83626500
0.88235300 0.87515700 0.82533800 0.84044300
0.88627500 0.87937500 0.82933900 0.84462600
0.89019600 0.88359400 0.83334300 0.84880800
0.89411800 0.88780800 0.83735000 0.85299900
0.89803900 0.89201900 0.84135800 0.85721500
0.90196100 0.89623200 0.84536700 0.86146600
0.90588200 0.90044500 0.84937800 0.86575000
0.90980400 0.90466100 0.85338800 0.87006100
0.91372500 0.90887500 0.85740200 0.87438200
0.91764700 0.91307700 0.86142100 0.87871700
0.92156900 0.91726400 0.86544100 0.88307700
0.92549000 0.92144000 0.86946100 0.88745800
0.92941200 0.92561200 0.87348600 0.89186000
0.93333300 0.92977900 0.87751400 0.89628200
0.93725500 0.93394600 0.88153600 0.90073300
0.94117600 0.93811200 0.88555700 0.90519500
0.94509800 0.94227400 0.88957800 0.90967300
0.94902000 0.94643200 0.89360000 0.91417000
0.95294100 0.95058000 0.89762900 0.91869100
0.95686300 0.95472000 0.90166900 0.92324200
0.96078400 0.95886000 0.90571600 0.92781800
0.96470600 0.96300500 0.90977300 0.93241300
0.96862700 0.96715400 0.91384100 0.93702100
0.97254900 0.97130500 0.91792200 0.94164700
0.97647100 0.97545600 0.92201200 0.94628900
0.98039200 0.97960900 0.92611000 0.95094600
0.98431400 0.98376200 0.93021600 0.95561600
0.98823500 0.98791600 0.93433000 0.96030000
0.99215700 0.99207200 0.93845300 0.96499700
0.99607800 0.99622800 0.94258500 0.96970900
1.00000000 1.00000000 0.94672400 0.97443400
END_DATA
