CTI3   

DESCRIPTOR "Argyll Calibration Target chart information 3"
ORIGINATOR "Argyll dispread"
CREATED "Tue May 26 12:27:02 2020"
DEVICE_CLASS "DISPLAY"
SINGLE_DIM_STEPS "29"
COMP_GREY_STEPS "85"
DARK_REGION_EMPHASIS "1.6"
COLOR_REP "RGB_XYZ"
TARGET_INSTRUMENT "X-Rite i1 DisplayPro, ColorMunki Display"
DISPLAY_TYPE_REFRESH "YES"
INSTRUMENT_TYPE_SPECTRAL "NO"
LUMINANCE_XYZ_CDM2 "374.720273 393.486529 433.536678"
NORMALIZED_TO_Y_100 "YES"
VIDEO_LUT_CALIBRATION_POSSIBLE "YES"

BEGIN_ARGYLL_COLPROF_ARGS
-v -qh -aX -bn -C "No copyright. Created with DisplayCAL 3.8.9.3 and ArgyllCMS 2.1.2" -M "DELL U2718Q" -A "Dell, Inc."
END_ARGYLL_COLPROF_ARGS

OBSERVER "1931_2"
USE_BLACK_POINT_COMPENSATION "NO"
BLACK_POINT_CORRECTION "0.0"
HIRES_B2A "YES"
HIRES_B2A_SIZE "-1"
SMOOTH_B2A "YES"
PATCH_SEQUENCE "OPTIMIZE_DISPLAY_RESPONSE_DELAY"

NUMBER_OF_FIELDS 7
BEGIN_DATA_FORMAT
SAMPLE_ID RGB_R RGB_G RGB_B XYZ_X XYZ_Y XYZ_Z
END_DATA_FORMAT

NUMBER_OF_SETS 1140
BEGIN_DATA
1 100.0000 100.0000 100.0000 95.23078 100.0000 110.1783
2 1.960800 1.960800 1.960800 0.241698 0.248025 0.338261
3 3.921600 3.921600 3.921600 0.375158 0.389632 0.493569
4 5.882400 5.882400 5.882400 0.552984 0.585831 0.657480
5 9.803900 9.803900 9.803900 0.999056 1.034365 1.206209
6 13.72600 13.72600 13.72600 1.701662 1.799411 1.972720
7 17.64700 17.64700 17.64700 2.554519 2.666240 2.984305
8 21.56900 21.56900 21.56900 3.778017 3.950802 4.412838
9 25.49000 25.49000 25.49000 5.150928 5.401295 5.980804
10 29.41200 29.41200 29.41200 6.772293 7.160799 7.808309
11 33.33300 33.33300 33.33300 8.743817 9.095225 10.12141
12 37.25500 37.25500 37.25500 10.93320 11.44096 12.56691
13 41.17600 41.17600 41.17600 13.44187 14.12254 15.56488
14 45.09800 45.09800 45.09800 16.43447 17.27181 19.06217
15 49.02000 49.02000 49.02000 19.79449 20.86414 22.77558
16 52.94100 52.94100 52.94100 23.22903 24.53566 26.66251
17 56.86300 56.86300 56.86300 27.09723 28.39963 31.51777
18 60.78400 60.78400 60.78400 31.32183 32.93424 36.43178
19 64.70600 64.70600 64.70600 36.03785 38.03552 41.82219
20 68.62700 68.62700 68.62700 40.88903 43.01087 47.08841
21 72.54900 72.54900 72.54900 46.46386 48.86386 53.95310
22 76.47100 76.47100 76.47100 52.05301 54.85934 60.11439
23 80.39200 80.39200 80.39200 58.47607 61.54977 67.12135
24 84.31400 84.31400 84.31400 64.79318 68.20572 74.72626
25 88.23500 88.23500 88.23500 71.91976 75.60769 83.06655
26 92.15700 92.15700 92.15700 78.87296 82.90234 92.20133
27 96.07800 96.07800 96.07800 86.75821 91.19011 100.5465
28 46.00270 28.10420 18.71280 9.706941 8.594355 4.318995
29 71.87900 37.20220 26.78020 22.63145 18.28275 8.253811
30 72.69460 47.85180 40.40090 27.80957 24.89913 16.56926
31 76.75090 59.57040 69.21870 40.82785 37.46447 47.78701
32 100.0000 0.000000 16.74560 36.18811 20.48699 5.465834
33 100.0000 0.000000 29.16690 36.94396 20.82811 9.348636
34 100.0000 16.42100 38.60990 39.27587 23.59722 14.86179
35 64.35070 69.16220 0.000000 31.27273 39.01658 5.819279
36 81.40920 71.46570 0.000000 41.89494 46.55405 6.765822
37 100.0000 73.66540 0.000000 56.12114 56.18954 8.062507
38 7.042300 0.000000 0.000000 0.337644 0.245976 0.211086
39 8.992800 0.000000 0.000000 0.426742 0.301056 0.224597
40 11.02940 0.000000 0.000000 0.531959 0.365709 0.242836
41 13.15790 0.000000 0.000000 0.680859 0.448331 0.247165
42 15.38460 0.000000 0.000000 0.827771 0.529630 0.251924
43 17.71650 0.000000 0.000000 1.047802 0.651712 0.258604
44 20.16130 0.000000 0.000000 1.345977 0.821106 0.275177
45 22.72730 0.000000 0.000000 1.634744 0.983193 0.288018
46 25.42370 0.000000 0.000000 2.012379 1.198229 0.307185
47 28.26090 0.000000 0.000000 2.416684 1.423800 0.323270
48 31.25000 0.000000 0.000000 2.926099 1.711314 0.349661
49 34.40370 0.000000 0.000000 3.525665 2.051405 0.383536
50 37.73580 0.000000 0.000000 4.193531 2.430125 0.423832
51 41.26210 0.000000 0.000000 5.066590 2.917240 0.459890
52 45.00000 0.000000 0.000000 6.164062 3.535320 0.508158
53 53.19150 0.000000 0.000000 8.915503 5.086274 0.648322
54 55.44400 0.000000 0.000000 9.458329 5.395170 0.681068
55 57.69230 0.000000 0.000000 10.29604 5.867984 0.724565
56 62.50000 0.000000 0.000000 12.46194 7.081927 0.834148
57 67.64710 0.000000 0.000000 14.68772 8.349282 0.956663
58 73.17070 0.000000 0.000000 17.59895 9.989519 1.111110
59 79.11390 0.000000 0.000000 20.83396 11.82807 1.303070
60 85.52630 0.000000 0.000000 24.75507 14.06097 1.523667
61 92.46570 0.000000 0.000000 29.46289 16.72686 1.786976
62 100.0000 34.87420 15.06880 40.46723 28.08723 6.313086
63 100.0000 43.53950 53.55340 47.06103 34.17545 28.35413
64 0.000000 3.378400 0.000000 0.218874 0.294263 0.230681
65 0.000000 5.172400 0.000000 0.269943 0.380483 0.254464
66 0.000000 7.042300 0.000000 0.372299 0.554918 0.284503
67 0.000000 8.992800 0.000000 0.457646 0.699127 0.306960
68 0.000000 11.02940 0.000000 0.590528 0.921488 0.338862
69 0.000000 13.15790 0.000000 0.798008 1.285338 0.390079
70 0.000000 15.38460 0.000000 0.950299 1.553753 0.424748
71 0.000000 17.71650 0.000000 1.167473 1.938308 0.472226
72 0.000000 20.16130 0.000000 1.443084 2.421664 0.534791
73 0.000000 22.72730 0.000000 1.823663 3.099206 0.627912
74 0.000000 25.42370 0.000000 2.286653 3.903068 0.731920
75 0.000000 28.26090 0.000000 2.787551 4.772735 0.856784
76 0.000000 31.25000 0.000000 3.395796 5.839754 1.011595
77 0.000000 34.40370 0.000000 4.062136 7.012037 1.186694
78 0.000000 37.73580 0.000000 4.888339 8.443947 1.396811
79 0.000000 41.26210 0.000000 5.871579 10.16530 1.648784
80 0.000000 45.00000 0.000000 7.160020 12.43092 1.980357
81 0.000000 48.96910 0.000000 8.573387 14.89038 2.341283
82 0.000000 53.19150 0.000000 10.20426 17.74458 2.776463
83 0.000000 57.69230 0.000000 11.99703 20.87989 3.250454
84 0.000000 62.50000 0.000000 14.45292 25.16598 3.889705
85 0.000000 67.64710 0.000000 17.34677 30.22010 4.699260
86 0.000000 73.17070 0.000000 20.39302 35.50760 5.574863
87 0.000000 79.11390 0.000000 24.39037 42.45070 6.711028
88 0.000000 85.52630 0.000000 28.93111 50.33770 8.044348
89 0.000000 92.46570 0.000000 34.62434 60.23561 9.733857
90 100.0000 100.0000 0.000000 76.26027 91.36674 14.25776
91 100.0000 100.0000 23.32610 77.26694 91.82224 19.32706
92 0.000000 0.000000 3.378400 0.159094 0.132166 0.430120
93 0.000000 0.000000 5.172400 0.181881 0.142778 0.543369
94 0.000000 0.000000 7.042300 0.217529 0.159292 0.723350
95 0.000000 0.000000 8.992800 0.263558 0.180747 0.957760
96 0.000000 0.000000 11.02940 0.315337 0.204965 1.219764
97 0.000000 0.000000 13.15790 0.397832 0.243239 1.636725
98 0.000000 0.000000 15.38460 0.474030 0.278545 2.019648
99 0.000000 0.000000 17.71650 0.586890 0.331088 2.590925
100 0.000000 0.000000 20.16130 0.722776 0.394036 3.280286
101 0.000000 0.000000 22.72730 0.923792 0.487148 4.298131
102 0.000000 0.000000 25.42370 1.114844 0.575519 5.265486
103 0.000000 0.000000 28.26090 1.350530 0.684901 6.454976
104 0.000000 0.000000 31.25000 1.619895 0.809344 7.822118
105 0.000000 0.000000 34.40370 1.929399 0.950476 9.388531
106 0.000000 0.000000 37.73580 2.323105 1.133733 11.38236
107 0.000000 0.000000 41.26210 2.768625 1.337865 13.63236
108 0.000000 0.000000 45.00000 3.387457 1.624087 16.76542
109 0.000000 0.000000 48.96910 4.039112 1.923938 20.06928
110 0.000000 0.000000 53.19150 4.752808 2.255216 23.68660
111 0.000000 0.000000 57.69230 5.634505 2.664500 28.15841
112 0.000000 0.000000 62.50000 6.796659 3.194629 34.02536
113 0.000000 0.000000 67.64710 8.054826 3.776395 40.40539
114 0.000000 0.000000 73.17070 9.746878 4.554957 48.94988
115 0.000000 0.000000 79.11390 11.34216 5.285614 57.06690
116 0.000000 0.000000 85.52630 13.52126 6.279332 68.08877
117 0.000000 17.84320 100.0000 20.37919 10.78559 97.61978
118 0.000000 49.87470 100.0000 27.85993 24.01983 99.17506
119 0.000000 60.26470 100.0000 32.49997 32.06379 100.7539
120 23.84380 70.00780 100.0000 39.29530 42.14418 102.3145
121 0.000000 17.71540 81.33500 12.99675 7.383948 60.42246
122 0.000000 29.77390 100.0000 22.19766 13.99130 97.98966
123 0.000000 40.43760 100.0000 24.66977 18.37756 98.49764
124 25.70000 48.75530 100.0000 29.07039 24.20069 99.35659
125 2.796400 2.796400 2.796400 0.290733 0.293694 0.395464
126 3.378400 3.378400 3.378400 0.351437 0.363710 0.472205
127 5.172400 5.172400 5.172400 0.475734 0.488659 0.608444
128 5.787000 5.787000 5.787000 0.555539 0.586781 0.670305
129 6.410300 6.410300 6.410300 0.588669 0.622340 0.705729
130 7.042300 7.042300 7.042300 0.691314 0.722578 0.832096
131 7.683200 7.683200 7.683200 0.775464 0.810160 0.933782
132 8.333300 8.333300 8.333300 0.818126 0.856204 0.978778
133 8.992800 8.992800 8.992800 0.910865 0.936093 1.136994
134 9.661800 9.661800 9.661800 1.002629 1.035831 1.223324
135 10.34060 10.34060 10.34060 1.067477 1.105153 1.312623
136 11.02940 11.02940 11.02940 1.198247 1.238761 1.509364
137 11.72840 11.72840 11.72840 1.352230 1.401304 1.688172
138 12.43780 12.43780 12.43780 1.503960 1.570270 1.795333
139 13.15790 13.15790 13.15790 1.636315 1.724355 1.965396
140 13.88890 13.88890 13.88890 1.708619 1.802532 1.996774
141 14.63100 14.63100 14.63100 1.858411 1.934840 2.186608
142 15.38460 15.38460 15.38460 2.016429 2.113029 2.413862
143 16.14990 16.14990 16.14990 2.230325 2.333246 2.643737
144 16.92710 16.92710 16.92710 2.413682 2.542043 2.785116
145 17.71650 17.71650 17.71650 2.560005 2.670412 3.017797
146 18.51850 18.51850 18.51850 2.772046 2.907098 3.319684
147 19.33330 19.33330 19.33330 3.023525 3.170564 3.598300
148 20.16130 20.16130 20.16130 3.274181 3.381812 3.776852
149 21.00270 21.00270 21.00270 3.608425 3.770300 4.266998
150 21.85790 21.85790 21.85790 3.817609 3.974359 4.602051
151 22.72730 22.72730 22.72730 4.140397 4.312470 4.865999
152 23.61110 23.61110 23.61110 4.417972 4.634979 5.239382
153 24.50980 24.50980 24.50980 4.699411 4.885785 5.471534
154 25.42370 25.42370 25.42370 5.171159 5.416925 6.040704
155 26.35330 26.35330 26.35330 5.502427 5.801718 6.425167
156 27.29890 27.29890 27.29890 5.961730 6.243202 6.866844
157 28.26090 28.26090 28.26090 6.304083 6.628098 7.307983
158 0.000000 0.000000 0.000000 0.110623 0.109285 0.183310
159 12.11140 15.63450 0.000000 1.456617 1.879814 0.468859
160 31.25000 31.25000 31.25000 7.718561 8.110502 8.954348
161 32.28230 32.28230 32.28230 8.158000 8.546043 9.509999
162 33.33330 33.33330 33.33330 8.790478 9.138889 10.24099
163 34.40370 34.40370 34.40370 9.292068 9.761939 10.72060
164 35.49380 35.49380 35.49380 10.01386 10.56297 11.66074
165 36.60440 36.60440 36.60440 10.60564 11.16277 12.36461
166 37.73580 37.73580 37.73580 11.19742 11.76257 13.06849
167 38.88890 38.88890 38.88890 12.10917 12.67794 14.18157
168 40.06410 40.06410 40.06410 12.71586 13.30877 14.82996
169 41.26210 41.26210 41.26210 13.52079 14.18650 15.74412
170 42.48370 42.48370 42.48370 14.54360 15.24794 16.89149
171 43.72940 43.72940 43.72940 15.57042 16.28795 18.06600
172 45.00000 45.00000 45.00000 16.53268 17.35041 19.30023
173 46.29630 46.29630 46.29630 17.51533 18.27691 20.49769
174 47.61910 47.61910 47.61910 18.51734 19.39681 21.73430
175 48.96910 48.96910 48.96910 19.91902 20.97072 23.07313
176 50.34720 50.34720 50.34720 20.92212 21.92831 24.24345
177 51.75440 51.75440 51.75440 22.32994 23.52742 25.69744
178 53.19150 53.19150 53.19150 23.91548 25.17530 27.43474
179 54.65950 54.65950 54.65950 24.91218 26.34908 28.90227
180 56.15940 56.15940 56.15940 26.40976 27.72596 30.85374
181 57.69230 57.69230 57.69230 27.83151 29.23828 32.55858
182 59.25930 59.25930 59.25930 29.68350 31.11798 34.70151
183 60.86140 60.86140 60.86140 31.48736 33.07264 36.84988
184 62.50000 62.50000 62.50000 33.49226 35.15692 38.88717
185 64.17620 64.17620 64.17620 35.69204 37.62579 41.71058
186 65.89150 65.89150 65.89150 37.44574 39.35901 43.33503
187 67.64710 67.64710 67.64710 40.05432 42.12227 46.47897
188 69.44440 69.44440 69.44440 42.22726 44.35944 49.17581
189 71.28510 71.28510 71.28510 45.12271 47.34005 52.46791
190 73.17070 73.17070 73.17070 47.74216 49.97356 55.86030
191 75.10290 75.10290 75.10290 50.47900 53.06003 58.30827
192 77.08330 77.08330 77.08330 53.56164 56.39373 61.92942
193 79.11390 79.11390 79.11390 56.59167 59.59446 65.23105
194 81.19660 81.19660 81.19660 59.94724 63.09563 69.31092
195 83.33330 83.33330 83.33330 62.95189 66.27518 73.03887
196 85.52630 85.52630 85.52630 66.91683 70.43339 77.71164
197 87.77780 87.77780 87.77780 71.20421 74.86426 82.81955
198 90.09010 90.09010 90.09010 75.44402 79.28892 87.89975
199 92.46570 92.46570 92.46570 79.78058 83.83858 93.49724
200 94.90740 94.90740 94.90740 84.67687 88.75787 98.78988
201 44.09980 73.26260 59.29380 32.13666 41.52210 36.63772
202 45.66090 73.63210 69.52420 35.28426 43.32333 49.24902
203 57.17610 83.94630 100.0000 56.94310 62.65092 105.5320
204 0.000000 17.07780 65.02500 8.523472 5.287052 37.97663
205 21.35780 23.85780 66.92410 11.07400 7.789002 40.11067
206 0.000000 20.19650 36.23870 3.592172 3.490615 11.23229
207 39.34460 22.40560 41.52080 9.048402 6.816961 14.99713
208 48.29580 22.74980 73.52990 18.57603 11.55431 50.57059
209 81.58030 0.000000 100.0000 41.46541 21.29829 98.98712
210 100.0000 0.000000 100.0000 54.64344 28.77511 99.65192
211 100.0000 26.30890 100.0000 57.17749 33.27975 100.1653
212 82.81140 35.29420 0.000000 27.52254 20.73978 2.649101
213 100.0000 36.66650 0.000000 40.36047 28.66168 3.695929
214 35.87150 0.000000 19.17090 4.340723 2.443616 3.407465
215 36.93420 0.000000 27.58730 5.164733 2.846366 6.433789
216 20.70950 0.000000 40.92200 4.000726 2.022243 13.67157
217 22.21110 40.79270 42.09750 10.04834 12.11380 16.30328
218 32.25100 63.14910 66.28360 25.42110 31.09276 42.76880
219 58.50520 66.12390 68.87910 35.29455 38.36939 47.56911
220 100.0000 69.86160 78.60890 65.03569 57.57181 63.52387
221 52.77590 14.44410 0.000000 9.469994 6.357813 0.899038
222 67.83360 20.55770 0.000000 16.43068 11.10974 1.414117
223 48.96910 0.000000 0.000000 7.422140 4.246089 0.586219
224 52.76100 0.000000 13.83220 8.986596 5.082998 2.328725
225 56.17110 0.000000 60.48450 16.14259 8.477275 33.03055
226 100.0000 39.18750 79.37280 52.37558 34.97643 61.55041
227 100.0000 79.51430 78.95080 71.41581 68.51392 66.08292
228 100.0000 88.42110 100.0000 85.45019 82.71674 108.1589
229 25.63490 0.000000 53.27310 6.571184 3.256004 24.10042
230 63.62530 0.000000 74.08540 22.83728 11.87547 51.23013
231 74.36290 32.79190 83.35840 34.50009 22.53047 67.31238
232 0.000000 14.09660 12.94580 1.103052 1.471263 1.848559
233 0.000000 16.57440 23.73510 1.957833 2.186972 4.983426
234 0.000000 27.51860 36.18650 4.706349 5.466619 11.43393
235 0.000000 47.80250 60.33400 14.40870 16.97748 34.41368
236 21.53230 49.89480 64.04070 17.40748 19.55639 38.84726
237 39.04240 76.72270 100.0000 46.32747 50.83339 103.9603
238 5.172400 0.000000 0.000000 0.246993 0.185187 0.188577
239 3.968300 3.968300 3.968300 0.377971 0.391527 0.509276
240 4.566200 4.566200 4.566200 0.449885 0.461605 0.579805
241 35.26040 16.23260 23.71770 5.456505 4.128820 5.151244
242 56.65500 23.39090 38.73460 14.32999 10.15420 13.52940
243 71.54250 42.08920 49.45420 26.96563 22.09943 23.28748
244 0.000000 67.38150 46.32170 20.75435 31.53526 23.03524
245 0.000000 67.94550 66.76810 25.02885 33.81566 43.67459
246 0.000000 83.63960 85.84440 41.04873 54.10557 76.86092
247 0.000000 87.10860 100.0000 49.32826 61.24625 106.2828
248 0.000000 38.26680 78.55050 16.23494 13.97544 57.93700
249 0.000000 48.49250 81.02020 20.31021 20.10402 62.77748
250 67.85920 18.89630 49.63420 20.22539 12.64739 22.30259
251 100.0000 24.17290 59.83070 43.90866 26.85172 34.46725
252 0.544700 0.544700 0.544700 0.156169 0.156918 0.233667
253 1.096500 1.096500 1.096500 0.196976 0.196605 0.281511
254 25.17470 100.0000 20.68500 44.33886 73.55290 16.73545
255 54.01770 100.0000 36.28720 52.79490 78.11297 24.28720
256 84.20900 100.0000 37.92340 67.82069 86.42114 26.23776
257 100.0000 100.0000 40.99750 79.16753 92.67880 29.18050
258 100.0000 100.0000 56.09590 81.63873 93.81243 41.68372
259 23.53420 0.000000 67.34400 9.441654 4.545223 40.24662
260 44.07200 0.000000 77.64900 16.50075 8.215375 55.49320
261 67.69010 38.33200 100.0000 38.96118 25.83276 100.1316
262 75.63480 82.92780 100.0000 64.74958 66.20109 105.5549
263 0.000000 38.61690 32.38990 6.838742 9.661205 10.20252
264 0.000000 41.21140 47.74360 9.733044 11.99783 21.19963
265 65.62700 42.43790 83.74270 32.91386 24.55636 68.43351
266 100.0000 58.27710 86.00440 61.50700 48.00041 75.09524
267 100.0000 62.31010 100.0000 69.32253 54.28591 104.3933
268 0.000000 100.0000 51.05800 45.73088 73.99798 33.97750
269 0.000000 100.0000 77.10590 51.97554 76.84446 66.04592
270 0.000000 100.0000 88.61970 55.82028 78.58520 85.75338
271 0.000000 100.0000 100.0000 60.24807 80.54030 108.5906
272 26.82810 100.0000 100.0000 62.27849 81.68384 108.6377
273 26.67440 25.05320 40.95630 6.949319 6.179647 14.41150
274 29.00710 36.21820 48.36760 10.83804 10.98647 21.48581
275 59.73980 51.91130 73.51550 30.58188 27.41611 53.05427
276 66.41050 61.82190 100.0000 47.33404 41.31952 102.6211
277 0.000000 0.000000 92.46570 16.30406 7.526872 82.24217
278 0.000000 0.000000 100.0000 19.18816 8.796826 96.90685
279 29.56230 21.33710 100.0000 22.89423 12.64156 98.12354
280 44.92840 46.79680 100.0000 32.69165 25.26262 100.3298
281 84.79120 66.54720 100.0000 60.11576 51.57103 103.4832
282 100.0000 75.87540 100.0000 76.73732 67.42319 105.9160
283 0.000000 69.91060 33.27660 20.36827 33.08832 14.59454
284 14.36450 86.70820 33.71800 32.75420 53.40238 18.83406
285 58.59830 76.94180 19.65240 34.46117 46.37795 11.35989
286 76.50730 76.84770 37.84460 44.66259 51.89409 20.09310
287 28.22700 33.38350 0.000000 6.060163 7.793977 1.271678
288 29.07130 48.46180 39.01110 13.26013 17.11010 15.09291
289 63.63490 52.80640 42.24570 26.13098 26.38538 18.94235
290 52.49270 34.91440 0.000000 12.62628 12.05737 1.751838
291 65.12310 55.05580 16.26990 25.11283 26.89316 7.012137
292 79.29620 62.47420 26.22590 36.73719 37.78015 11.46711
293 100.0000 77.44190 68.46330 66.87323 64.32511 50.86191
294 100.0000 88.10820 69.02290 74.62296 77.83937 53.30941
295 83.96600 0.000000 17.23090 24.20078 13.67729 4.547646
296 100.0000 0.000000 41.41330 38.33357 21.45579 16.78140
297 100.0000 24.20740 49.71100 41.91118 26.02882 24.07719
298 0.000000 60.05750 18.74030 13.90313 23.30677 7.180062
299 0.000000 65.40070 73.43830 25.78944 32.41532 54.13627
300 0.000000 71.13850 85.45410 32.76945 39.71666 74.20463
301 47.70520 100.0000 100.0000 67.11921 84.35149 108.8779
302 78.41290 100.0000 100.0000 80.39959 91.71877 109.3064
303 82.86920 47.75860 0.000000 31.29638 27.33941 3.694962
304 100.0000 49.27880 0.000000 44.38301 35.70869 4.837191
305 100.0000 59.91280 31.93220 50.42076 44.05316 14.75494
306 100.0000 65.72550 45.90410 55.33887 50.25873 25.07369
307 0.000000 1.655600 0.000000 0.160780 0.194871 0.203991
308 1.655600 1.655600 1.655600 0.221427 0.226821 0.305934
309 2.222200 2.222200 2.222200 0.264001 0.270444 0.370465
310 100.0000 0.000000 0.000000 35.46952 20.15618 2.197940
311 100.0000 21.83350 0.000000 37.46808 23.63375 2.824672
312 100.0000 32.37850 26.96110 40.56698 27.44780 9.616806
313 100.0000 42.38800 40.29370 44.72403 32.82002 17.82748
314 0.000000 0.000000 0.000000 0.111110 0.109795 0.184066
315 18.34410 7.137400 0.000000 1.354468 1.118244 0.350644
316 28.39700 65.45450 84.63710 31.54866 35.27808 71.89984
317 48.70330 68.43880 100.0000 44.19592 43.80703 103.2640
318 47.96570 0.000000 22.61160 7.829485 4.381794 4.751605
319 64.82570 28.70710 27.44550 17.33361 13.02155 7.761128
320 30.56390 18.57630 0.000000 3.944908 3.681214 0.672288
321 34.38860 48.69860 0.000000 11.83981 16.54176 2.538160
322 45.27090 58.49730 39.08680 20.98063 26.12928 16.79864
323 47.89650 69.41350 81.66880 37.38975 41.36582 67.19019
324 48.35430 50.56870 58.16580 21.92159 22.43667 32.19075
325 76.69710 74.23830 63.33940 47.48697 50.83817 43.05053
326 87.15550 78.60200 100.0000 68.78600 64.94511 106.0720
327 46.59510 0.000000 100.0000 25.63703 12.35644 98.04343
328 64.98740 0.000000 100.0000 32.61329 16.29689 98.27884
329 0.000000 10.58460 33.14560 2.377687 1.711440 9.592672
330 0.000000 19.24730 46.93700 5.130095 4.045853 19.56827
331 0.000000 39.69840 64.54630 12.89415 12.95831 39.05643
332 78.97710 100.0000 85.11930 74.98265 89.33502 80.71786
333 33.40050 29.77650 17.05650 6.859336 7.397687 3.619769
334 33.21140 37.08200 20.02650 8.726706 10.40070 5.126997
335 32.21290 77.15000 29.94820 27.66785 42.55234 14.31474
336 0.000000 100.0000 0.000000 41.45676 72.02284 11.93254
337 0.000000 100.0000 20.84430 42.33059 72.42475 16.46103
338 26.26350 100.0000 72.94500 52.99179 77.50938 60.59560
339 0.000000 28.02960 21.63010 3.474974 5.003778 4.728984
340 0.000000 35.47510 36.71490 6.542772 8.488191 12.53284
341 0.000000 70.11790 100.0000 37.93549 41.41685 102.7596
342 0.000000 78.26690 100.0000 43.00434 50.27744 104.2332
343 24.41730 79.89060 100.0000 45.73273 53.15541 104.5346
344 40.97040 40.95040 0.000000 10.69223 12.75894 1.931515
345 54.44600 46.97990 0.000000 16.89770 18.77366 2.741894
346 65.68260 57.21540 0.000000 25.75332 28.59089 4.113631
347 100.0000 61.75310 0.000000 49.49312 44.70057 6.175786
348 100.0000 74.44720 22.15740 57.68456 57.72258 13.29471
349 100.0000 85.97370 39.95150 67.31153 72.24031 24.63689
350 25.45750 78.29480 0.000000 25.87206 42.65763 6.714652
351 64.83300 83.55010 0.000000 41.08297 55.60160 8.634156
352 15.29250 25.55990 0.000000 2.984545 4.310625 0.786227
353 29.23980 29.23980 29.23980 6.855168 7.234852 7.984742
354 30.23600 30.23600 30.23600 7.194243 7.507664 8.504900
355 0.000000 43.51870 15.97750 7.149417 11.74490 4.489762
356 0.000000 51.74120 39.69150 12.17787 17.88867 15.78903
357 35.81750 100.0000 55.14250 50.47733 76.52657 38.90840
358 49.05880 100.0000 69.31360 57.40601 80.04631 55.88562
359 76.39920 100.0000 69.80170 69.18577 86.56924 57.29654
360 100.0000 100.0000 70.26670 85.01567 95.33517 58.91319
361 100.0000 100.0000 81.39790 88.37293 96.87553 75.94490
362 100.0000 100.0000 90.76610 91.57974 98.32024 92.20609
363 70.26090 0.000000 62.50090 22.74773 12.15617 35.90662
364 100.0000 0.000000 73.73800 45.43462 24.68569 52.83684
365 100.0000 29.01300 89.29820 53.53774 32.29178 79.47168
366 100.0000 47.82600 100.0000 62.97128 43.27286 102.3703
367 84.67660 51.78870 38.45260 36.47520 31.73411 16.73269
368 100.0000 54.80560 42.96230 49.50897 40.62552 21.38169
369 100.0000 66.45260 57.11490 57.56176 51.54659 35.34295
370 46.80110 0.000000 37.88660 8.995798 4.864894 12.52361
371 66.16960 0.000000 46.86480 17.69665 9.651334 19.88346
372 76.29470 13.39270 46.26490 23.71140 14.07142 19.57106
373 27.16920 100.0000 0.000000 43.73751 73.27133 12.03677
374 48.97570 100.0000 0.000000 48.95376 76.17233 12.53789
375 90.03980 100.0000 100.0000 87.86892 95.83764 110.4514
376 97.41780 97.41780 97.41780 89.33700 93.73675 103.8637
377 1.655600 0.000000 0.000000 0.151804 0.132574 0.186087
378 3.378400 0.000000 0.000000 0.196580 0.157423 0.187354
379 39.00600 0.000000 11.30320 4.817850 2.750083 1.689951
380 71.03230 0.000000 23.34180 17.18432 9.665277 5.747110
381 100.0000 0.000000 51.40180 39.87743 22.16450 24.64219
382 100.0000 0.000000 61.93000 42.15689 23.18429 36.26095
383 0.000000 0.000000 1.655600 0.132628 0.119950 0.293660
384 10.55930 0.000000 11.34050 0.714564 0.424308 1.349110
385 24.05400 0.000000 27.05640 2.870974 1.549132 6.213203
386 38.84640 17.59020 46.67430 9.329400 6.212731 19.33920
387 43.35080 32.35100 50.50700 13.51947 11.28988 23.29109
388 48.32460 43.40930 78.02330 24.64234 20.46819 58.22906
389 0.000000 82.64970 52.59750 31.68841 49.16491 31.36664
390 0.000000 84.29080 76.66450 38.56072 53.70744 61.32636
391 26.70720 100.0000 82.83290 55.96059 78.86233 75.57619
392 50.51540 100.0000 90.20310 64.34731 83.24903 89.23920
393 64.34030 100.0000 100.0000 73.20838 87.72031 109.2718
394 0.000000 100.0000 35.68850 43.62727 73.01910 23.15398
395 49.61250 100.0000 48.62880 53.23769 78.17319 32.76246
396 71.33140 100.0000 56.45750 63.42513 83.66983 41.12485
397 31.76830 65.05930 0.000000 18.90085 29.31761 4.500805
398 82.50730 84.79990 0.000000 51.29984 62.26034 9.519924
399 100.0000 86.25440 0.000000 64.88393 71.52911 10.79071
400 23.21510 5.926700 9.042800 1.987093 1.377248 1.176010
401 26.77660 19.85090 24.68340 4.466389 4.030644 5.582647
402 33.27530 53.19640 34.51630 15.47322 20.59067 12.90773
403 0.000000 78.60480 21.66880 24.81352 41.99283 11.24635
404 30.39300 100.0000 35.18900 46.40545 74.54762 23.12045
405 100.0000 20.08660 16.56270 37.85038 23.53574 5.848714
406 100.0000 21.19210 30.24120 38.94159 24.23237 10.66506
407 100.0000 33.25030 43.05570 42.60750 28.57689 19.36882
408 80.49990 22.63150 26.16390 24.80276 16.25285 7.745051
409 85.12210 24.95580 48.57400 30.85431 19.80372 22.63815
410 79.19470 0.000000 86.23460 34.59451 18.06487 71.83515
411 86.91670 20.64420 100.0000 46.67644 26.21730 100.0883
412 12.67220 89.77990 55.53390 38.45497 59.23199 36.57040
413 10.98090 90.77320 75.36920 43.55061 62.30442 60.73723
414 0.000000 29.35480 12.88280 3.362435 5.391240 2.476059
415 12.00550 42.73510 22.52450 7.829836 11.91302 6.238773
416 11.51260 64.14010 34.72670 18.16169 28.44481 14.57793
417 18.06590 66.33910 43.61780 20.70254 30.82995 20.57649
418 38.04750 12.05500 0.000000 4.934285 3.540390 0.613753
419 38.59070 30.00080 0.000000 7.424415 7.760525 1.207046
420 44.40860 35.49120 12.72130 10.51758 11.03670 3.281518
421 63.11290 48.28050 62.07780 27.52115 24.44168 37.12864
422 74.70720 50.42530 65.46060 34.90477 29.66255 41.98237
423 17.02000 12.37300 19.29570 2.190545 1.929982 3.517365
424 24.79930 13.17210 21.12740 3.379178 2.662997 4.182341
425 47.59020 18.96650 24.06360 9.076852 6.553729 5.422738
426 47.74450 19.63650 30.34240 9.832830 6.983325 8.271133
427 26.34950 0.000000 10.45730 2.294701 1.328313 1.297147
428 25.61240 0.000000 100.0000 20.64837 9.595784 97.28892
429 51.64610 21.32090 100.0000 28.76479 15.88426 98.62913
430 39.32190 11.17180 58.09270 10.85429 6.122245 29.91541
431 46.31240 19.82880 57.61350 13.50706 8.666480 29.65858
432 46.25010 36.88670 61.08420 17.78298 14.75609 35.23220
433 14.06280 44.53910 53.39300 12.45242 14.79932 26.36409
434 33.06910 45.18930 55.35090 15.54213 16.67635 28.76275
435 45.23310 55.45850 83.88910 29.87917 28.40206 69.12370
436 58.09490 60.89710 90.60260 39.61900 36.75623 83.41046
437 31.05940 18.45140 62.44810 10.73396 6.740119 35.27639
438 35.29270 27.94180 72.93470 15.75225 10.97574 49.86285
439 36.42770 72.50990 79.89950 35.65955 42.70178 64.88785
440 34.71020 91.17290 89.45670 51.63192 66.71251 85.59466
441 52.44880 92.34110 89.91930 57.55946 71.11452 86.73488
442 83.04080 67.38860 50.99060 44.92951 45.23301 28.49891
443 100.0000 76.83330 55.87480 63.70714 62.58495 36.09134
444 100.0000 86.61210 54.94440 70.30848 74.33914 37.24034
445 0.000000 0.000000 0.000000 0.111519 0.110182 0.184730
446 0.000000 40.10680 24.63140 6.565582 10.06235 6.787875
447 12.47670 41.83150 31.55980 8.289000 11.75394 9.919191
448 37.84090 77.86550 67.34640 35.67664 47.07662 47.40644
449 36.89740 85.84500 79.86130 44.74780 58.46326 66.92118
450 0.000000 53.77500 58.88650 16.43671 20.97003 33.23000
451 0.000000 54.41040 73.05890 20.38337 23.22904 51.74098
452 0.000000 60.21910 85.91760 27.24101 29.78363 73.70473
453 29.76840 33.08650 53.24610 11.22751 10.23716 25.81701
454 41.05860 41.88750 61.03840 17.74748 16.54342 35.53508
455 60.32700 50.00540 81.54840 32.54794 27.51771 65.33907
456 60.45330 76.94380 100.0000 53.33261 54.76364 104.6214
457 11.90100 18.12720 38.86430 4.180409 3.468855 13.20981
458 13.47670 27.83670 45.54940 6.729268 6.561999 18.48040
459 35.57300 32.21760 45.74520 10.73431 9.832462 19.14477
460 48.84150 32.86120 87.47880 25.36777 17.15479 74.41649
461 56.23470 41.75700 89.59700 30.80647 22.82001 78.77170
462 0.000000 7.655400 11.63070 0.657789 0.738903 1.549927
463 9.660500 8.250800 13.84190 1.085774 0.993485 1.943416
464 18.23060 14.10530 27.41060 2.944598 2.415057 6.545937
465 66.95410 15.08740 64.53600 22.70510 13.13237 38.86702
466 78.40210 22.93760 69.10470 30.79968 18.77612 44.75325
467 0.000000 9.803100 21.88510 1.284490 1.142174 4.304012
468 0.000000 27.00140 62.78820 9.492380 7.606230 35.92432
469 0.000000 29.76480 82.24370 15.59155 11.07600 64.24634
470 21.81490 45.21410 84.45580 21.65016 19.30697 68.96244
471 15.12010 14.38520 71.30110 10.75317 6.034589 47.10457
472 28.17840 17.57330 85.89240 16.94072 9.392013 69.86773
473 26.41760 35.15610 100.0000 25.20077 17.15772 99.24058
474 49.06620 35.94190 100.0000 31.06151 20.66319 100.1031
475 49.10920 58.82020 100.0000 39.19259 34.84441 102.0962
476 91.43120 43.42040 7.932500 35.56570 28.09683 5.146141
477 100.0000 49.46210 17.81660 45.09121 36.06245 8.441779
478 66.33890 0.000000 12.42190 14.28283 8.093689 2.506728
479 75.09230 10.39590 14.66580 19.37831 11.68790 3.610438
480 86.00730 15.52500 37.82220 28.66726 17.38150 13.69751
481 81.39540 0.000000 37.73290 24.66269 13.74136 13.21111
482 83.62030 0.000000 49.84600 27.58848 15.19962 22.53455
483 100.0000 0.000000 87.16120 49.57987 26.54024 74.13782
484 13.06770 0.000000 19.08900 1.230243 0.675578 3.263652
485 27.15310 25.52310 58.19480 10.14715 7.746796 30.25299
486 27.70910 39.94750 65.67520 15.38062 14.34015 40.41594
487 47.19630 60.69810 76.31360 31.12981 32.54281 58.14675
488 68.10790 68.78810 76.62770 43.41761 44.31037 59.67678
489 78.71420 76.90670 85.80190 57.00504 57.69767 77.12387
490 7.015400 13.92420 6.198100 1.144446 1.517718 0.943711
491 17.45240 17.71260 8.082700 2.240012 2.534589 1.330121
492 17.23170 45.44470 8.837000 8.510826 13.38544 3.342414
493 38.73220 47.29060 21.05690 13.17659 16.65524 6.501223
494 81.93280 50.67320 23.40320 32.86120 29.25576 9.273598
495 80.77670 76.11600 21.36370 45.20094 51.78379 12.13298
496 100.0000 86.09790 22.83950 65.90133 72.01352 16.08913
497 43.86130 42.39600 13.32050 12.48194 14.39143 4.107261
498 65.60040 44.82520 22.26360 21.74712 20.52824 7.492693
499 68.01280 57.99910 72.20550 36.23171 33.73932 52.14823
500 77.83560 57.54980 77.23970 42.91073 37.30376 59.71246
501 8.923500 59.53580 42.97090 16.51951 24.37053 19.56204
502 0.000000 100.0000 64.66030 48.68134 75.30573 49.18362
503 47.52950 100.0000 79.30660 59.56428 80.96865 69.69327
504 19.90880 14.18890 0.000000 2.055399 2.045117 0.481130
505 24.11270 22.69790 0.000000 3.477377 4.037142 0.735395
506 43.03240 61.32070 24.46700 20.58627 27.81476 9.618138
507 57.05060 81.36950 48.80080 40.22614 52.96478 28.42672
508 81.58670 81.73690 59.48680 54.83594 61.17340 40.37185
509 55.01550 54.46370 9.101100 20.44910 24.38212 5.063842
510 100.0000 63.00010 20.48730 51.32432 46.77124 10.96236
511 12.46960 5.629100 17.52460 1.290552 0.921553 2.758395
512 20.06130 8.029500 20.89140 2.316175 1.618599 3.848983
513 28.30310 8.607600 28.07150 4.032718 2.584649 6.928905
514 35.33410 7.520600 44.45410 7.183072 4.077392 16.96069
515 57.56770 8.635800 44.79230 14.06444 8.104935 17.63027
516 70.40780 23.51960 100.0000 37.19435 21.16398 99.13552
517 85.61190 39.41500 100.0000 49.59761 32.45873 101.0057
518 10.29370 32.41790 37.59120 6.361012 7.664420 12.77431
519 9.994000 43.32570 41.03880 9.609072 12.71766 16.00666
520 20.99970 52.42710 59.24710 17.32248 20.83843 33.77112
521 27.20010 59.54460 100.0000 34.19531 32.57903 101.5412
522 22.18240 90.95810 100.0000 53.90444 67.50353 107.4472
523 78.96800 32.90210 33.00820 26.25034 19.17503 11.46590
524 83.29030 42.12060 53.83250 34.49488 26.34247 27.96773
525 16.36130 0.000000 9.036100 1.094161 0.640845 1.037364
526 22.28100 0.000000 17.44130 2.011944 1.138847 2.617814
527 21.52910 51.78530 52.07710 15.56084 19.60512 26.02753
528 33.26460 61.25940 58.39910 22.99982 28.70765 33.77882
529 43.64710 62.35810 63.96970 27.34691 31.79128 40.80028
530 61.92660 72.62590 80.36990 44.23727 47.46868 66.15828
531 86.51120 79.47280 93.08700 66.63266 65.08943 92.32563
532 40.09640 0.000000 49.21060 8.874673 4.629290 21.13726
533 43.87590 0.000000 63.77570 12.99759 6.613430 37.12357
534 100.0000 24.07030 69.70380 46.42385 28.01456 47.36961
535 42.62080 22.40230 0.000000 7.312957 6.163481 0.948431
536 55.98690 25.79990 0.000000 12.15719 9.640162 1.322507
537 79.71950 37.17350 22.00030 26.78647 20.75292 7.246249
538 80.83680 57.08280 57.21390 39.44536 35.71569 33.28762
539 90.80930 58.40920 66.70430 48.74219 41.48216 44.67486
540 43.60530 21.38360 16.68960 7.867498 6.325730 3.368341
541 52.19240 42.04320 23.06370 15.62206 16.08671 7.094837
542 58.94620 57.44680 48.86270 26.92172 28.90931 24.64798
543 63.91590 57.38420 53.54590 29.94061 30.51708 28.99677
544 15.99410 73.13620 28.31840 22.84802 36.86984 12.73357
545 22.42490 77.05640 38.93120 26.99987 41.82676 19.61116
546 39.66850 80.78610 46.89910 34.07951 48.88224 26.76916
547 43.15400 88.58370 45.20990 40.66150 59.48793 27.19789
548 52.41170 88.56130 55.18350 45.11281 61.78659 36.27807
549 62.00070 88.57130 89.47260 58.58983 68.31794 85.69617
550 16.88160 16.40040 11.81440 2.213925 2.395785 1.908311
551 25.18440 18.58750 14.27640 3.486372 3.332444 2.343205
552 36.13910 25.17220 16.94470 6.454145 6.147706 3.338922
553 48.80930 39.99160 31.06360 14.47827 14.51104 10.19020
554 58.98070 42.91380 32.95490 19.15341 18.32443 11.61028
555 59.81930 91.65120 100.0000 64.33923 73.98991 108.0049
556 0.000000 50.93760 48.10750 13.26444 18.00510 22.71555
557 14.13400 75.15550 60.67510 28.98061 41.32693 39.11918
558 50.07760 79.45500 11.86460 33.27397 48.13575 9.780782
559 90.05250 89.35260 17.17720 60.77231 71.95870 14.72502
560 47.61450 70.99170 0.000000 26.19977 37.56264 5.786042
561 50.25380 71.86600 49.75270 31.83312 41.03430 27.05302
562 50.14910 85.43920 90.10670 51.95917 61.71231 86.46643
563 79.61930 85.15820 93.00020 65.91886 69.05977 92.94062
564 61.70920 20.39130 30.98470 15.20705 10.26123 9.188760
565 68.10420 22.65340 41.99030 19.77282 13.08454 16.21863
566 83.84950 47.62710 66.76590 39.39317 30.94091 43.23251
567 29.66040 0.000000 84.17770 15.55599 7.418186 66.96848
568 59.02540 0.000000 85.53430 24.60719 12.44188 70.09280
569 60.84300 27.45080 90.10010 29.51050 18.01057 79.46444
570 64.59690 50.22860 100.0000 41.40517 31.69538 101.3513
571 69.89610 71.86050 100.0000 54.59954 51.84830 104.3104
572 36.33550 58.92820 80.10610 28.07313 29.49536 62.96661
573 0.000000 34.66040 50.00780 8.390962 9.068317 22.99779
574 7.173000 42.99690 60.89130 13.24453 14.39362 35.06060
575 14.28740 48.27290 72.71270 18.47880 19.16116 50.95349
576 12.31980 52.36260 91.45770 26.10686 24.78832 82.58046
577 82.69780 0.000000 60.66990 29.49572 16.00704 34.60515
578 83.42730 0.000000 75.44550 33.80673 18.01339 54.20321
579 91.81530 14.00700 81.16110 42.02848 23.64841 64.07085
580 100.0000 19.59390 79.39790 48.46681 28.15930 60.73672
581 100.0000 48.79220 88.98480 58.95015 41.84569 80.77790
582 69.89880 53.01850 59.29970 31.91776 29.29393 34.57316
583 73.27450 54.62040 82.44670 40.80774 34.41859 67.65047
584 14.23050 0.000000 28.87650 2.061702 1.068181 6.944381
585 33.06310 0.000000 36.86110 5.508697 2.919043 11.86648
586 55.09290 0.000000 49.33270 13.44560 7.187625 21.83291
587 31.69990 15.08620 28.04760 5.117385 3.731938 7.112024
588 39.98050 28.97460 40.74920 10.35883 8.971239 14.83445
589 54.82920 37.77990 51.66480 18.75490 15.91484 24.94409
590 69.36190 41.51140 62.44460 28.30521 22.38271 37.53279
591 68.45230 84.84380 75.27520 53.65141 62.46546 60.56880
592 0.000000 54.73630 30.63790 12.43256 19.59013 11.09915
593 36.31790 69.37960 32.42120 24.14794 35.06020 14.47786
594 47.47700 77.87570 37.19620 32.97889 46.28944 19.10280
595 15.19180 53.75170 15.74470 11.79234 18.92595 5.709440
596 22.37700 62.79310 27.52790 17.54823 27.20333 10.45051
597 33.24660 64.31310 44.38620 22.21422 30.60466 21.32539
598 77.56010 67.26660 83.22260 49.94196 47.23722 71.13586
599 81.48060 67.43970 91.66630 55.42549 49.96702 87.13345
600 52.31900 23.61540 52.11870 14.93290 10.27353 24.42372
601 54.98100 35.76210 58.04700 19.57956 15.63613 31.56932
602 89.90480 90.61060 100.0000 79.57004 81.54228 108.3987
603 100.0000 100.0000 100.0000 95.28529 99.91307 111.3390
604 15.24620 20.74050 34.13800 4.183781 3.938544 10.33349
605 43.64970 36.28560 33.76370 12.17753 12.11093 11.07333
606 28.02760 18.75320 8.829100 3.814648 3.600429 1.618789
607 43.11510 28.03230 10.04120 8.580722 7.893247 2.439462
608 54.03420 29.41550 10.28870 12.36466 10.49194 2.791626
609 57.24160 36.98080 11.61160 15.26323 14.09305 3.709035
610 12.80850 28.22990 22.68220 4.168252 5.507120 5.157490
611 19.75190 28.18610 26.22080 5.066115 5.977810 6.673138
612 21.50640 28.34750 38.41600 6.600328 6.707883 13.22607
613 55.60030 29.66330 66.49310 20.58892 14.47110 41.18486
614 69.63430 41.79040 75.54320 32.34636 24.47713 55.66209
615 19.76640 6.204500 33.50550 3.314850 1.974577 9.699894
616 23.15820 16.65860 36.93050 4.841845 3.673417 12.01075
617 24.75160 42.93160 38.54130 10.79989 13.43241 14.42617
618 40.75270 43.96150 48.91900 15.78423 16.38529 22.76308
619 9.337800 23.50190 73.62290 12.22725 8.125499 51.00470
620 25.37700 27.58450 81.57980 16.47968 11.05331 62.65892
621 69.27420 77.85490 80.59160 51.05538 55.25424 68.24095
622 78.74360 86.30590 80.70260 62.07273 68.49713 70.11306
623 17.54500 33.57990 18.26500 5.431975 7.561468 4.267771
624 54.82200 33.98790 29.60290 14.70978 12.86323 8.923036
625 58.03650 37.66880 39.94130 18.03685 15.70806 15.44212
626 61.52880 47.88350 50.15670 24.49941 23.02176 24.70713
627 65.78160 68.96930 60.15570 38.27069 42.18630 38.09893
628 66.30750 74.60070 69.45280 43.67014 48.64298 50.52723
629 67.06270 84.16010 82.36970 54.78589 62.55777 71.96156
630 20.11030 35.47440 27.14480 6.773663 8.742133 7.589462
631 34.38400 44.40510 27.14930 11.57588 14.51924 8.379504
632 40.12290 47.55820 36.10200 14.81901 17.48162 13.45567
633 59.81020 58.38950 36.09960 26.21768 29.38180 15.52632
634 69.15630 60.29060 42.87190 32.09682 33.81850 20.68298
635 85.22280 69.45830 66.81330 50.68592 49.44146 46.19763
636 90.60100 77.68690 71.24480 60.80027 60.93817 55.10611
637 100.0000 79.72150 89.68310 75.41865 70.41217 86.33658
638 86.37940 0.000000 30.00950 26.94817 15.13175 9.509309
639 87.69740 16.90240 31.39780 29.38716 18.06988 10.41864
640 52.50590 0.000000 32.15790 10.17770 5.604157 9.180006
641 52.93810 43.28880 48.64780 19.25512 18.17837 22.98485
642 54.64760 47.88870 56.62900 22.79848 21.89758 30.85852
643 64.76530 30.42440 35.07790 18.52611 14.04480 11.83408
644 77.24310 36.25660 41.57630 27.13371 20.43474 17.18205
645 90.17230 40.10400 44.76930 37.02910 27.33193 20.59378
646 56.07100 18.36810 19.05770 11.78837 8.128745 4.423175
647 70.21160 21.61230 27.64430 18.85510 12.60940 7.702079
648 100.0000 56.51480 64.69780 54.44168 43.83204 43.05524
649 100.0000 57.33730 74.81150 57.42847 45.59304 56.74957
650 56.36980 49.21820 43.43320 21.96723 22.53747 18.98849
651 81.03610 49.40240 49.61690 35.25798 29.86983 25.22119
652 83.20070 21.88370 0.000000 25.26322 16.47959 1.999662
653 82.46590 26.91760 19.47860 26.06395 17.75265 5.853902
654 92.94900 53.31960 18.72560 40.96405 35.39800 8.727127
655 100.0000 54.62570 53.77920 51.30327 41.49994 30.44165
656 27.01600 9.151700 0.000000 2.612103 1.932984 0.432254
657 33.53740 17.30110 13.09120 4.762307 3.908197 2.218252
658 42.69520 49.47900 11.36950 14.63141 18.50661 4.575548
659 50.55790 59.88540 18.00920 22.06145 28.20593 7.699331
660 50.46080 100.0000 20.82160 50.39476 76.86067 17.06969
661 70.60660 100.0000 23.20800 58.59696 81.37904 18.41994
662 69.19030 100.0000 43.24100 60.09940 82.00729 29.63574
663 68.82240 100.0000 76.16120 66.96906 85.12666 65.94637
664 0.000000 11.77870 48.79140 4.746500 2.929375 21.10690
665 0.000000 28.14400 51.32940 7.264346 6.881709 23.43898
666 0.000000 83.39270 65.51900 35.17761 51.49139 46.44806
667 9.051600 86.88290 84.74820 43.79293 58.86872 76.01803
668 25.36320 100.0000 91.38860 58.79052 80.06059 91.60424
669 31.26610 62.33490 73.72550 27.42168 31.59421 55.07581
670 78.28530 68.45010 76.47070 49.02992 47.76431 60.20051
671 90.84290 70.20610 76.48520 57.96495 53.86505 61.08396
672 70.90270 90.14830 29.13160 50.66894 66.69076 17.95841
673 73.02030 91.74890 74.87340 61.53148 73.39997 62.03944
674 88.52290 100.0000 80.71050 80.02870 92.22023 74.27698
675 89.50610 100.0000 91.75920 84.11937 94.07059 93.95657
676 28.37300 54.29150 48.10820 17.00005 21.75166 23.44202
677 51.78420 59.10410 48.77900 25.35893 29.24253 24.70345
678 60.76240 74.50740 49.43760 37.30602 45.84053 27.54393
679 65.15640 77.56790 63.15420 43.90896 51.49310 43.17131
680 58.06260 11.35430 11.29660 11.43314 7.175577 2.412824
681 59.63670 22.09770 11.08350 13.38078 9.560917 2.659369
682 65.71730 47.54110 14.00540 22.43392 22.07561 5.579934
683 66.82450 100.0000 0.000000 55.77293 79.90607 13.16355
684 83.76870 100.0000 0.000000 64.93095 84.99093 13.67028
685 0.000000 84.47440 38.96050 30.77812 50.18424 21.14268
686 20.85620 100.0000 46.05790 46.48049 74.41435 30.56844
687 23.04200 100.0000 62.16260 49.83501 75.97405 46.63357
688 58.91830 100.0000 61.47760 59.08720 81.10534 46.59998
689 63.34390 100.0000 83.55560 67.03790 84.92112 77.65984
690 72.77030 100.0000 92.28230 74.67692 88.80821 95.01172
691 44.26420 84.43630 0.000000 34.06887 52.25617 8.234611
692 44.61620 84.08820 29.95660 35.49492 52.58625 16.19021
693 23.21070 83.02270 18.94220 29.93900 48.93328 11.92502
694 43.05690 88.99160 68.30330 45.64734 62.21480 51.06276
695 0.000000 66.42690 56.25470 22.09287 31.44408 32.50566
696 23.28170 69.72990 72.99880 29.79492 37.69703 54.54630
697 21.97240 71.73830 87.89420 35.66728 41.89512 79.52835
698 79.21120 50.18160 59.93930 36.11795 30.34185 35.70287
699 86.86190 65.56920 59.12350 47.72606 45.32550 37.46215
700 100.0000 68.41800 68.05250 61.40199 54.87800 49.22164
701 10.50470 7.960600 0.000000 0.796444 0.841961 0.336781
702 15.16770 7.796100 6.564900 1.221799 1.068538 0.896078
703 19.39680 35.48920 43.51090 8.531870 9.551288 17.18732
704 44.17150 56.79000 52.59780 22.20873 25.81089 27.45402
705 49.16620 56.63360 59.26370 25.04280 27.14260 34.63756
706 54.59810 60.25460 69.33080 31.24696 32.58044 48.38326
707 64.27690 65.03390 79.52200 40.48724 40.27390 63.95293
708 14.50130 36.13260 31.56110 6.814020 9.013767 9.482731
709 13.72260 50.84480 33.20540 11.79989 17.42643 12.01406
710 21.62700 66.40730 51.94880 22.60201 31.81161 27.79006
711 100.0000 69.72010 89.18190 68.99113 59.48743 83.43806
712 28.65970 9.834600 49.46500 7.042026 4.026397 21.62903
713 61.40660 21.32540 70.88540 22.94660 13.90340 47.98557
714 70.13810 29.24140 70.96610 28.14029 18.53895 48.44469
715 76.99140 28.07890 53.53710 27.22582 18.18726 26.89895
716 78.10070 36.64390 67.89530 33.10728 23.43364 43.99981
717 78.70220 47.79320 75.03580 38.99790 30.56195 55.37374
718 82.11680 53.40040 100.0000 52.16276 39.50221 102.6321
719 15.42450 75.47570 73.11900 32.27668 42.87353 55.46955
720 27.68040 81.00450 82.55130 40.80314 52.17158 71.74582
721 34.87530 85.88800 91.71400 48.62467 60.17606 89.67187
722 41.33250 88.13980 100.0000 55.33279 65.63903 107.3922
723 10.87350 24.21730 27.25280 3.685545 4.338654 6.867085
724 21.71820 26.42630 31.27630 5.452164 5.760963 8.928764
725 44.67760 50.57720 64.22730 22.44214 22.59710 40.29994
726 91.28070 76.89570 63.81150 58.60403 59.25940 45.15531
727 66.57280 72.17080 41.14280 37.38901 44.55363 21.40529
728 71.47780 83.33240 47.36410 47.98564 58.88445 28.75778
729 71.94060 83.20920 57.11470 49.84639 59.66837 37.69715
730 76.36890 83.78500 65.73090 54.84357 62.90100 47.81459
731 89.97110 83.63770 70.45360 64.36379 67.88929 55.39472
732 100.0000 100.0000 100.0000 95.29255 99.88225 111.5078
733 31.81770 35.86950 41.99410 10.29818 10.71541 16.27396
734 41.19040 41.98340 53.39040 16.03769 15.80436 26.65172
735 100.0000 41.31780 61.59830 48.17554 33.79944 37.92723
736 69.33910 0.000000 38.42240 17.87257 9.884327 13.26081
737 73.38630 13.67350 37.88990 20.96453 12.68869 13.52109
738 78.48870 62.89380 40.61680 38.26131 38.80181 19.80177
739 91.58430 79.63760 57.14250 59.34400 62.13197 37.76057
740 100.0000 88.70710 80.50280 78.49487 80.07151 71.50748
741 100.0000 89.15400 90.51070 82.45737 82.29716 89.98772
742 61.83730 0.000000 26.76270 13.62420 7.623711 6.825203
743 72.62980 11.93520 30.17520 19.39905 11.67768 9.002090
744 89.37630 57.47860 35.41640 41.84619 37.78194 16.07346
745 100.0000 73.83950 39.62240 58.93000 57.69599 22.11635
746 21.79220 53.65820 0.000000 11.99369 19.11628 2.985777
747 48.19690 57.34510 0.000000 19.07389 24.85321 3.715452
748 81.58580 59.39500 0.000000 35.57123 35.50565 5.077818
749 81.23590 65.99810 15.18030 39.28490 41.44709 9.256410
750 86.68590 100.0000 21.70290 67.61623 86.37832 18.64033
751 86.49070 100.0000 52.77190 71.52290 88.17671 38.46353
752 88.51050 100.0000 67.24180 76.14992 90.44565 54.28373
753 66.79180 45.20680 0.000000 21.61188 20.78927 2.903282
754 0.000000 0.000000 0.000000 0.112061 0.110797 0.185340
755 19.27190 38.60360 0.000000 6.326980 9.586201 1.562233
756 91.13500 38.28310 28.82280 35.22943 26.07940 10.40211
757 100.0000 46.89270 29.97630 45.00994 34.90035 12.44708
758 68.24950 34.17070 0.000000 19.21979 15.62041 2.069962
759 79.59290 41.35160 12.06060 27.52478 22.58665 5.141868
760 81.56240 72.94700 75.18120 53.21399 53.22778 58.99444
761 0.000000 19.27750 11.39710 1.635803 2.453591 1.806513
762 0.000000 23.44880 24.20700 2.939428 3.835335 5.466004
763 41.76860 24.49140 24.96240 8.302794 6.913632 6.054059
764 90.35680 28.28150 60.45540 37.14918 23.67412 34.98227
765 100.0000 43.33690 71.89110 51.52710 36.19689 51.76355
766 7.798200 4.785900 22.90260 1.344203 0.891941 4.484410
767 12.56720 20.05000 55.51190 7.337502 5.209978 27.78140
768 27.27580 33.60700 71.61240 15.54974 12.34157 49.31993
769 49.55360 34.59020 74.84090 21.82215 15.97027 53.62401
770 59.27550 70.62010 85.78940 43.90369 45.69115 76.45290
771 12.83050 49.27530 41.49100 12.20116 16.96051 16.95902
772 31.10140 72.83420 44.58610 26.80948 38.92677 23.29132
773 47.36140 80.32310 56.44650 37.82543 50.59105 36.08797
774 56.99950 80.87950 65.50460 43.22609 53.63368 46.52666
775 81.56830 9.925400 23.02690 23.89251 14.16091 6.393471
776 83.97140 12.57820 55.55370 29.84365 17.34178 29.00965
777 93.50140 10.20380 64.16300 38.38777 21.74770 39.62453
778 94.28660 49.86570 75.87710 50.42172 38.17545 57.28261
779 61.90740 10.40550 33.50290 14.81805 8.857466 10.19865
780 87.66720 28.00490 38.40260 31.73686 21.04127 15.28837
781 88.68300 36.14630 57.57610 37.47055 26.08154 32.12464
782 70.97980 52.74270 91.99980 42.39175 33.80303 86.47792
783 73.15440 62.97690 93.27350 49.26381 43.69041 90.44498
784 11.61540 75.82650 54.28870 27.75070 41.10601 32.13306
785 28.24320 85.82220 61.14640 38.32134 55.39735 41.96020
786 29.91200 86.55920 70.45060 41.46754 57.63265 54.36879
787 54.21940 88.02830 74.82070 49.89537 63.32818 60.47797
788 65.41860 91.87480 83.00310 60.42921 72.52280 75.42082
789 6.958900 24.33090 13.50620 2.604931 3.816493 2.295188
790 9.097000 33.43450 21.69460 4.930206 7.147360 5.188167
791 61.33740 53.02480 57.60880 27.84191 27.11246 32.72069
792 87.42050 56.38870 77.21470 48.52033 40.01100 60.39255
793 91.50900 62.91850 76.46190 54.04010 46.96660 60.15211
794 92.73430 83.65790 81.14410 69.06458 70.20395 71.27276
795 11.77680 26.86570 9.242800 3.218814 4.776738 1.809631
796 25.40080 29.38870 10.36060 5.189763 6.433409 2.248487
797 26.18700 41.20500 58.35690 13.91717 14.18984 32.24385
798 34.97530 49.42420 69.33160 20.95040 21.26436 46.97527
799 36.86190 34.66960 64.99210 15.66172 12.81271 40.03692
800 40.98180 37.25220 82.92250 22.49005 16.93275 66.33005
801 36.93610 30.83030 91.83800 23.08667 15.14400 83.03513
802 40.22420 48.71570 91.55310 29.14023 24.69755 83.52946
803 20.93750 70.61930 80.33970 32.17219 39.38481 65.60348
804 40.68380 77.13760 90.49870 43.60913 50.12521 85.90846
805 6.749600 34.39370 66.37590 12.12628 10.82949 40.88732
806 8.963700 43.07690 89.16010 21.78045 18.33905 77.89815
807 9.770800 68.05450 89.66890 33.26992 37.98976 82.49035
808 65.35820 11.68470 19.17060 15.17883 9.361848 4.559656
809 70.62960 26.28930 20.75150 19.25521 13.69593 5.534300
810 87.47380 62.11310 44.93150 44.19309 41.53720 23.46465
811 91.72080 71.83640 44.72400 52.20445 52.51900 25.13420
812 33.01250 26.65010 7.474500 5.837947 6.234141 1.747959
813 50.17670 39.84830 6.745200 13.59864 14.23420 2.997862
814 89.89900 63.82130 21.32540 44.21023 43.15835 10.80593
815 90.60290 63.72250 32.35950 45.55391 43.60545 15.52535
816 90.49960 74.70510 35.27970 51.81664 54.09459 19.02883
817 11.51700 9.506700 30.01890 2.413710 1.680297 7.967633
818 14.06790 24.22770 49.13850 6.808354 5.794609 21.56539
819 14.04190 38.21070 50.98790 10.08452 11.13818 23.87449
820 15.20090 42.11870 74.11980 17.00420 15.83037 52.93090
821 4.720700 11.96130 9.571200 0.986724 1.265117 1.227029
822 10.43960 19.58090 12.34110 2.044611 2.679542 1.994212
823 18.20280 25.72890 18.57320 3.886239 4.900753 3.658509
824 35.36830 29.06270 24.49200 7.470726 7.554178 5.996379
825 47.40120 32.60460 35.43530 12.57795 11.20301 11.72339
826 47.16480 11.15410 8.164300 7.680550 4.998452 1.591469
827 67.10360 15.83080 8.994000 15.69984 10.11019 2.504414
828 69.23570 81.54900 16.27420 42.66102 54.98895 11.94940
829 83.77840 90.39270 28.03710 57.80275 71.08245 17.76070
830 84.83370 90.04140 40.85840 59.78107 71.72868 25.66473
831 55.61830 68.09230 8.916100 27.75786 36.66178 7.256453
832 74.80630 76.71520 9.311400 41.91792 50.66580 9.640152
833 76.06450 90.89130 10.63000 52.77075 68.76643 13.10483
834 76.56740 91.49620 100.0000 71.93837 77.90000 108.5657
835 9.542600 59.65760 72.85120 23.23098 27.52977 53.40233
836 12.65490 91.16970 93.63920 50.56392 65.93980 94.56943
837 10.06580 58.11740 51.25260 17.15527 23.69369 26.16876
838 35.41030 64.39890 54.77170 24.46987 31.73940 31.01581
839 27.00120 89.22700 8.277200 34.76334 57.31927 11.04296
840 39.07890 89.84090 21.05580 38.12606 59.51563 14.25063
841 72.94680 90.06560 42.11070 53.32140 68.04070 26.31421
842 84.15970 91.01610 55.12610 62.73048 73.92760 38.36044
843 56.09800 17.08560 57.93040 16.82337 10.17957 30.97790
844 69.49280 18.21360 81.18550 28.83314 16.48717 62.88380
845 81.98750 22.75880 81.50740 36.87173 21.83345 64.91166
846 30.40590 8.261700 16.20840 3.534257 2.377501 2.688218
847 36.00820 13.13180 16.59580 5.003963 3.609703 2.920233
848 43.92980 14.59410 15.84140 7.173627 4.982488 2.952701
849 43.41840 34.80250 21.47280 10.66970 10.85225 5.551901
850 53.81330 34.66320 20.61770 13.87464 12.62611 5.610074
851 65.45570 37.66920 31.75700 20.40271 17.13374 10.85811
852 67.21520 40.39790 40.26850 22.83855 19.32207 16.13620
853 77.55540 42.20950 39.72820 29.12907 23.76199 16.58705
854 57.71220 28.08390 19.67130 13.78892 10.96804 5.044017
855 64.50580 40.59620 26.60660 20.14854 18.09798 8.557024
856 74.02610 52.09830 36.19560 30.07909 28.34620 15.26320
857 58.66260 89.90000 9.751600 43.85770 62.71826 12.19544
858 56.69570 90.32850 24.85320 43.89837 62.98311 15.71072
859 58.43600 91.03600 47.78990 48.06368 65.83213 30.18031
860 74.91530 92.12300 57.84100 58.55145 72.57151 40.45732
861 22.46180 7.046200 76.84800 12.41990 6.217668 54.93227
862 43.09090 11.22880 84.04110 19.08079 9.986727 66.92051
863 44.83780 23.29240 90.19720 23.15159 13.56216 79.18547
864 46.76250 12.57830 42.40770 10.49564 6.394712 15.93545
865 47.93200 50.92870 44.95000 19.86009 21.88911 20.59409
866 13.59250 5.577000 54.96810 6.052901 3.122378 26.63801
867 18.94210 14.12410 60.49840 8.282426 4.880526 33.20546
868 41.68290 26.94400 63.79440 14.83219 10.54504 37.96177
869 62.32680 58.36900 66.34850 32.61467 32.21184 43.46306
870 77.14280 83.24520 72.67890 56.93968 63.31848 57.97979
871 88.34380 89.43860 77.37440 69.91826 76.09891 66.24092
872 92.73840 89.48500 82.62640 74.11064 78.23442 75.57390
873 26.75830 10.39400 40.47090 5.328900 3.273188 14.16809
874 30.04310 24.32460 48.22650 8.755621 6.876636 21.29776
875 45.56370 39.05060 48.09610 15.68737 14.77371 22.21722
876 45.44480 44.43250 36.39720 15.48023 16.66879 13.79204
877 52.19550 44.23120 43.65220 18.59931 18.41573 18.48807
878 64.34920 45.70890 68.62480 29.08947 24.34843 45.88202
879 48.77990 27.00520 43.54100 13.03327 10.00400 17.08034
880 64.62550 31.36350 48.16490 20.76792 15.34227 22.07499
881 90.23770 48.51730 54.59550 41.65987 33.15154 30.35620
882 91.68920 48.60520 63.97420 44.71134 34.69423 41.30399
883 52.00600 32.92550 42.06160 15.23863 12.80014 16.56376
884 55.70880 40.48030 70.82540 24.44773 19.40489 48.92183
885 81.01790 42.43230 82.06350 41.01850 29.41729 66.67476
886 88.83560 49.00750 93.93390 53.03120 38.39321 90.59356
887 4.646400 6.743100 16.23480 0.912572 0.797366 2.466171
888 10.22460 12.96420 22.51550 1.947673 1.815300 4.630631
889 9.663300 30.35970 42.20950 6.482950 6.982258 16.20476
890 34.75740 52.42690 58.60490 19.39474 22.05566 33.33759
891 36.72120 53.79810 65.79920 22.28058 24.12304 42.29851
892 44.75450 61.09000 68.91190 28.42016 31.52691 47.56289
893 56.99440 74.98470 75.00710 41.71565 47.73377 58.06312
894 51.65490 50.81640 22.70770 18.68589 21.51994 8.076256
895 63.12590 53.84330 28.00970 24.79232 26.36190 10.57540
896 62.63660 61.06800 26.00530 27.87590 32.21786 10.64139
897 35.15480 34.69060 11.59460 7.961792 9.233241 2.980538
898 37.13010 36.26810 27.74800 9.927472 10.77734 7.946376
899 63.46310 42.51970 52.08730 23.92705 20.54497 26.05805
900 89.33630 43.79000 78.00420 45.52669 32.74313 60.61328
901 91.83470 58.11140 88.75570 55.93297 44.44426 80.99746
902 9.717600 35.50380 12.29810 5.141210 8.085004 2.893086
903 24.26180 45.02430 29.67610 10.47022 14.26868 9.671623
904 40.49550 54.27850 44.90370 19.11534 23.01011 21.01743
905 43.29850 63.64160 49.04800 25.01184 31.64329 25.39041
906 49.71700 66.31830 62.90480 31.28143 36.43245 40.43507
907 50.32180 73.18140 78.57290 39.54363 45.27049 63.37991
908 45.97640 70.81520 90.42670 41.34255 44.38572 85.37478
909 72.93800 73.28340 90.73930 53.36049 52.64718 85.96935
910 3.561600 13.92090 29.92560 2.380046 2.085305 7.820932
911 9.201600 22.10660 30.62450 3.556905 3.786105 8.517626
912 9.725700 30.25550 30.08340 4.990709 6.303877 8.629153
913 21.55700 32.56850 34.30850 7.013107 8.096140 10.87695
914 30.78410 43.58870 48.34770 13.32569 14.92099 22.36594
915 52.66490 44.20180 61.86800 22.20449 19.92175 37.13445
916 55.62980 53.03780 67.02410 27.72246 26.73134 43.83071
917 75.87170 65.71650 56.13130 40.93943 41.93134 33.75277
918 79.83030 73.33990 55.36530 47.35186 50.45929 34.29363
919 31.31590 53.22150 13.94610 13.58845 19.76623 5.354185
920 34.59580 54.17070 25.72230 15.29694 21.11000 9.127609
921 47.69340 56.66630 29.25480 20.16512 24.94404 11.28444
922 66.47900 64.43510 50.95800 34.59431 37.72333 27.85157
923 36.77650 10.58720 7.438500 4.797765 3.294868 1.292072
924 37.80350 9.423800 34.26840 6.520104 3.952314 10.28001
925 34.45330 9.864600 67.15560 11.77018 6.285842 40.74808
926 35.85510 20.27670 77.09040 15.91274 9.495964 56.14979
927 35.34890 42.69880 77.43980 20.89923 18.25264 57.87546
928 19.95130 56.35440 75.78970 23.23958 25.67625 56.34108
929 53.85060 57.47460 78.74390 32.41917 31.33370 61.60517
930 66.61700 62.58130 84.98590 42.51069 39.92987 74.10448
931 19.47070 4.504000 14.97150 1.746881 1.144242 2.145221
932 29.25600 15.14260 16.45540 3.876931 3.173222 2.857891
933 56.30520 46.87720 16.88230 18.49224 19.68805 5.912731
934 56.34660 64.34950 41.53000 28.75475 34.61803 19.98116
935 55.85060 68.34810 53.24220 32.32596 38.78470 30.27085
936 56.27210 78.08320 70.24730 42.30699 50.74478 52.64377
937 15.51660 77.79000 46.76610 28.15842 43.08116 26.00373
938 17.83940 80.17110 92.93600 42.58562 51.78093 91.54936
939 15.41620 35.29480 57.14630 10.81070 10.56795 30.51371
940 14.93970 35.46420 91.83630 21.01096 15.21694 82.74598
941 12.29600 11.03180 86.57870 15.13360 7.627449 71.85756
942 14.98180 24.64120 90.63540 18.35670 11.15100 79.95512
943 74.30160 41.80020 92.73000 40.68787 28.52849 86.75490
944 12.26600 44.77990 47.99370 11.51174 14.41042 22.00868
945 33.41390 50.51490 51.40590 16.93806 19.82784 25.55294
946 17.12460 12.14880 5.588700 1.656936 1.644260 0.883413
947 48.10000 19.96960 9.316700 8.836048 6.638906 2.057736
948 53.51950 25.56560 25.53580 12.32004 9.529154 6.708933
949 58.90530 67.90840 29.66450 30.06611 37.55139 13.65826
950 60.20710 77.46410 37.27390 37.58282 48.74859 19.47888
951 58.80450 87.58490 36.40710 43.79514 60.32744 21.19610
952 20.47690 61.88820 10.60250 16.06802 25.96587 5.766078
953 33.31810 65.27450 20.70450 20.10050 30.01681 9.016044
954 34.32950 75.79340 55.78580 31.09890 42.96239 34.21143
955 64.14740 92.70700 62.76450 54.93605 70.87194 46.30698
956 5.290500 51.78070 21.28710 10.67084 17.30910 6.824744
957 22.56910 56.56740 31.77970 14.81593 21.84442 12.02736
958 24.97110 56.66340 43.01980 16.62844 22.71845 19.37908
959 55.00190 67.01400 89.88540 41.66849 41.86798 83.48612
960 58.33520 80.53230 89.54950 51.00291 56.91384 84.61867
961 7.449700 11.95240 40.61950 3.641899 2.448026 14.33059
962 20.13720 17.24960 45.38900 5.893168 4.198471 18.47771
963 80.76660 22.73970 61.00070 30.52256 18.85932 35.79852
964 90.22220 25.94760 71.82180 39.89985 24.45535 50.70355
965 89.84330 34.43150 80.75580 43.91300 28.51357 64.05077
966 90.75710 36.00890 91.03130 48.67973 31.31847 83.22876
967 61.00640 31.71010 53.37200 20.29357 15.07245 26.51077
968 75.12310 38.39490 56.73990 29.66624 22.28266 31.51812
969 29.96910 5.901600 21.90020 3.744882 2.307120 4.540880
970 56.63370 10.63890 21.90380 11.40561 7.032403 5.003366
971 83.00740 41.25570 33.70970 31.32896 24.56513 12.99577
972 91.72130 46.99890 43.72380 40.03693 31.78440 20.52386
973 42.11830 23.52930 32.55070 9.017746 7.185248 9.810238
974 52.88940 27.53440 32.62640 13.01810 10.23941 10.12071
975 61.74890 32.19060 41.11820 18.53133 14.43657 15.98368
976 73.56740 33.15040 45.41940 25.20715 18.39837 19.92753
977 89.29370 56.82310 48.78650 43.47261 38.11704 25.84635
978 91.27330 59.95690 57.74540 47.80149 42.27762 35.03647
979 93.44230 69.71890 57.27270 54.74854 52.45157 36.42810
980 29.92150 41.81160 10.25030 9.076392 12.37850 3.249620
981 38.22770 47.24240 45.28870 15.48271 17.60984 19.68110
982 56.78650 64.17610 58.98140 31.93663 35.88447 35.83419
983 72.53100 67.83680 62.83490 41.71603 43.37283 41.64507
984 73.51980 29.26720 10.73860 21.04004 15.48543 3.514328
985 87.36150 31.43980 11.70600 29.91571 21.08032 4.678335
986 90.66480 41.93790 19.43630 35.45612 27.55128 7.777499
987 18.44570 89.04420 47.41680 36.92678 57.79140 29.32180
988 37.54690 90.55450 58.25430 43.28737 62.59235 40.09552
989 8.247900 66.86670 17.57230 18.08955 30.21235 8.134711
990 47.14250 71.65950 22.72080 27.74535 38.98242 11.17586
991 70.29880 78.93000 29.39070 41.83689 52.17316 15.50680
992 46.31600 47.84940 72.80330 24.49175 22.37534 52.16572
993 53.79680 51.89380 90.23740 34.05255 28.88121 81.83437
994 61.13950 12.53470 40.34910 15.34337 9.266095 14.62178
995 90.57450 11.04980 44.80250 32.41858 18.93166 19.30683
996 93.17740 11.70910 52.92960 36.00356 20.90391 26.65209
997 21.47390 19.79340 4.605300 2.840635 3.141557 1.007456
998 22.10290 24.17920 12.03420 3.748719 4.458571 2.267618
999 26.35910 25.18960 18.30090 4.801054 5.210306 3.784074
1000 27.90760 32.61850 26.10560 7.185973 8.262638 7.068426
1001 28.96280 38.62910 27.16560 8.948583 11.13220 7.989526
1002 29.77100 38.54770 37.31640 10.05669 11.46664 13.24874
1003 28.97560 49.01250 77.67100 22.09069 21.51696 58.77560
1004 34.84280 54.64990 90.01050 29.72829 27.91384 81.90763
1005 81.80340 89.44800 91.36100 70.17919 75.45912 90.70500
1006 100.0000 100.0000 100.0000 95.29792 99.85874 111.8479
1007 10.95940 17.62790 20.98460 2.329744 2.542029 4.314572
1008 27.08690 19.64140 32.59520 5.293172 4.348330 9.591245
1009 32.32830 19.52780 53.03670 9.159602 6.217510 25.06455
1010 55.01100 86.51310 81.15600 51.33452 62.82428 70.80467
1011 69.66750 86.69630 91.38040 61.31385 67.98452 90.05400
1012 44.99220 49.85630 31.56960 16.83557 19.88799 11.69713
1013 53.76010 56.73370 41.37170 23.71844 27.10450 18.47048
1014 73.03810 59.33980 57.90720 36.23290 35.07647 34.54939
1015 85.23040 63.63170 66.79270 47.71142 44.20124 45.76604
1016 87.39150 69.88820 81.98730 57.18544 52.94474 70.32817
1017 92.33080 78.22230 81.60060 65.10446 63.38007 71.11453
1018 80.10750 13.89310 9.283300 22.49150 13.84839 2.926899
1019 90.26620 21.41150 10.58830 30.22372 19.39290 4.059000
1020 91.75060 30.61770 31.23900 33.89088 23.03575 11.36820
1021 65.68740 33.47700 13.90970 18.17436 14.67766 4.098372
1022 66.09890 71.89590 54.31300 39.17417 45.10176 32.38220
1023 69.07630 79.34030 90.90330 55.43532 58.34041 87.64335
1024 91.75090 84.09940 90.46460 72.13552 71.90818 88.80442
1025 3.288400 13.20120 17.31150 1.353734 1.569634 2.812926
1026 9.756100 20.22320 18.32450 2.411209 3.003094 3.449352
1027 45.13110 31.95720 26.51790 10.78410 10.01815 7.342004
1028 75.60130 45.21570 27.19550 27.43921 23.92325 9.633596
1029 89.79100 48.61050 30.37530 37.90985 31.42845 12.44074
1030 68.65280 41.02940 10.71420 21.58410 19.18465 4.296448
1031 80.18720 52.74390 14.06470 32.03239 29.89527 6.881787
1032 90.12670 81.70020 7.657400 54.57382 61.65813 11.00318
1033 89.66960 84.05870 33.46340 57.62578 65.19006 19.90217
1034 92.35570 87.30100 46.88240 63.79908 71.66958 30.23599
1035 91.97080 89.65320 59.82530 67.71547 75.52688 43.51697
1036 92.13640 91.36410 70.70480 71.60098 78.79430 57.64710
1037 69.67800 63.91840 12.39990 31.92680 36.34536 7.824538
1038 74.63170 68.67510 27.66300 37.67656 42.40305 13.19131
1039 83.38140 73.29760 43.46820 47.39528 50.69415 24.03086
1040 13.78600 60.33770 59.12110 20.34333 26.80745 35.06899
1041 14.94040 60.48310 65.66110 21.95522 27.55344 42.93035
1042 10.93450 89.92230 65.65640 40.61100 60.25953 48.13554
1043 11.23410 94.20320 86.66300 50.39852 69.20606 81.38339
1044 31.75840 28.73930 36.66410 8.035445 7.639070 12.27854
1045 41.67550 34.10690 39.38930 11.72195 11.00871 14.54996
1046 31.49790 22.34030 22.37170 5.423912 4.960032 4.940775
1047 33.49600 22.95110 31.70890 6.871060 5.881966 9.187401
1048 33.47020 41.26470 34.48570 11.18723 13.07833 11.69278
1049 56.75570 42.07940 38.33490 19.04694 17.90040 15.28860
1050 53.95580 49.43980 34.80970 20.08129 21.65649 13.43127
1051 69.56420 53.00910 47.53640 29.83388 28.47965 23.61633
1052 79.05950 57.88880 48.30210 37.43997 35.26138 25.33833
1053 81.36010 80.57040 49.66510 51.90864 58.79930 30.25571
1054 83.57710 93.39670 70.22540 67.40617 78.32190 56.97732
1055 86.38240 95.06810 83.71910 74.58847 83.45261 78.11157
1056 12.72150 21.07360 7.852000 2.303329 3.128265 1.362576
1057 19.12700 31.78560 7.930200 4.777969 6.772569 1.991211
1058 25.37270 39.01440 16.89220 7.745666 10.53404 4.342277
1059 43.74120 42.13540 25.51150 13.15041 14.57570 7.805376
1060 62.71260 48.89860 31.55210 22.96936 23.07657 11.79500
1061 70.19800 48.58810 49.62940 28.87555 25.94640 25.08682
1062 72.59320 9.223100 55.72840 23.15449 13.13432 28.95145
1063 71.94670 11.95890 90.83850 33.29958 17.88230 81.38994
1064 79.45180 27.23740 91.95080 39.57481 23.61598 83.65183
1065 47.42650 8.619800 49.06780 11.48755 6.523870 21.64097
1066 54.00690 12.43440 77.69210 20.82089 11.36414 57.19639
1067 58.86800 14.01770 91.34570 27.47401 14.69553 81.76889
1068 11.52320 5.236500 37.12400 3.009958 1.687763 11.96754
1069 16.74450 10.91650 48.73790 5.591416 3.312357 21.42240
1070 17.64920 29.34060 60.09310 10.42879 8.760561 33.57805
1071 20.03060 67.38280 59.45360 24.79156 33.69818 36.75675
1072 51.43320 68.66790 59.13380 32.23472 38.71062 36.75835
1073 65.36220 84.93510 63.36060 49.75192 61.06671 45.63566
1074 72.17740 53.90540 8.053600 27.96412 28.24273 5.423328
1075 73.60740 54.77640 28.74640 30.25736 29.82391 11.47305
1076 71.59410 63.95190 35.09500 34.59570 37.68708 16.23641
1077 71.76570 70.57280 47.73900 40.07490 44.85922 26.68312
1078 40.32910 60.24480 9.406000 18.78878 26.49425 5.626564
1079 63.16160 67.03510 16.88120 30.74327 37.54871 9.031319
1080 91.15190 75.50800 15.46700 51.17091 54.86716 11.51702
1081 90.55220 12.95830 17.63270 29.88027 18.03145 5.441491
1082 92.91840 34.34810 51.03150 38.47000 26.45778 25.54804
1083 40.75040 8.900000 26.25210 6.634764 4.103107 6.358083
1084 42.14220 18.11010 34.81420 8.500219 5.972990 10.80567
1085 41.36030 27.10140 53.96040 12.59153 9.525616 26.54137
1086 63.93600 32.69930 62.86330 23.75083 17.03362 37.78630
1087 88.10010 37.26480 67.12930 39.68684 27.36465 43.67462
1088 85.82530 10.19370 70.16750 34.88662 19.53187 47.77584
1089 90.82160 13.70040 90.79170 45.35506 25.06964 82.66190
1090 24.71120 10.89700 7.273900 2.585556 2.033066 1.100540
1091 36.97190 19.16000 7.837100 5.639780 4.744163 1.562264
1092 92.08550 55.66770 8.455500 40.85229 36.43948 6.703068
1093 91.68470 67.44030 8.939000 46.64866 46.81538 8.711050
1094 8.021500 89.57080 23.48460 33.66020 56.64620 14.61625
1095 33.55590 90.52190 38.28990 39.13152 60.60946 23.08537
1096 18.88450 71.94360 12.03590 21.51777 35.44682 7.957699
1097 36.03340 73.91900 12.26950 25.30957 38.70431 8.512420
1098 30.78990 72.34170 68.06580 31.16005 40.35127 48.03531
1099 41.72510 76.91690 77.83970 39.04250 47.79600 62.99602
1100 16.77420 58.01820 87.98790 27.80784 28.64952 77.81044
1101 34.89250 63.08060 92.00440 34.81199 35.60589 87.69698
1102 21.30200 83.82460 74.82260 39.44722 53.98896 59.72801
1103 41.70720 93.33830 80.90210 52.40503 69.69316 71.37417
1104 2.699600 75.63440 66.23070 29.98925 42.13121 45.83090
1105 56.69770 89.91240 68.11470 50.83406 65.87373 52.06359
1106 78.94010 93.40310 88.90000 70.56063 79.46363 87.14087
1107 45.54950 4.647100 12.87080 6.849903 4.070773 2.179559
1108 48.82910 11.32780 34.10270 9.964168 6.112731 10.49507
1109 54.17800 20.54520 44.26360 13.97218 9.325177 17.78799
1110 64.01630 16.88130 55.23020 19.51446 11.82821 28.47699
1111 69.59870 28.11140 57.81440 24.09326 16.32144 31.36159
1112 71.96220 62.42550 65.63530 39.22949 38.50160 44.29742
1113 81.21280 78.06980 72.01750 55.58505 58.37442 56.67371
1114 11.26070 3.376200 9.078900 0.817429 0.616787 1.100239
1115 18.03380 7.196100 11.58950 1.563642 1.201993 1.662340
1116 22.08320 13.48010 15.29930 2.577336 2.257993 2.512993
1117 22.89320 29.82940 17.90280 5.225462 6.530630 3.927688
1118 22.19270 46.78050 20.14330 9.904755 14.55977 6.047797
1119 39.47870 65.76160 38.80140 23.67273 32.37593 17.97780
1120 50.38010 69.76480 38.62440 29.14487 38.34669 18.59264
1121 4.074000 72.80570 75.74050 31.11972 40.68248 58.87137
1122 10.76950 77.85150 85.16940 37.72610 47.75151 76.03178
1123 12.54020 32.05950 76.39060 14.88543 11.47151 55.71803
1124 29.57170 40.16650 89.98170 23.32717 18.03765 79.97964
1125 20.86940 11.71540 96.32210 19.76401 9.848304 92.22905
1126 45.41650 10.91330 94.17200 23.66646 12.05375 87.56882
1127 19.36860 8.044300 26.84540 2.717253 1.818221 6.459959
1128 31.86660 14.88890 37.20280 6.122721 4.174341 12.20906
1129 78.13350 26.68310 39.97840 25.48251 17.22009 15.44154
1130 30.69060 6.148600 9.138900 3.171043 2.074486 1.318765
1131 41.98050 8.763700 18.91550 6.375173 4.024180 3.680480
1132 52.41370 12.33830 27.74940 10.49715 6.608263 7.266375
1133 51.64930 11.48100 65.45710 16.46355 9.143758 39.77878
1134 73.53910 9.985700 73.90320 28.59271 15.70567 52.79687
1135 82.41450 55.12450 90.70870 49.56288 39.36483 84.58193
1136 20.05380 19.81110 27.61690 3.907733 3.706076 6.825536
1137 37.37950 27.06440 30.56610 8.235545 7.439810 8.875296
1138 61.07320 31.40150 80.50940 27.15014 18.06235 62.24499
1139 90.27320 66.52750 89.29630 59.90538 52.03069 83.76097
1140 93.52130 76.30210 92.51470 69.39836 64.07197 92.34518
END_DATA
CAL    

DESCRIPTOR "Argyll Device Calibration State"
ORIGINATOR "Argyll dispread"
CREATED "Tue May 26 12:27:02 2020"
DEVICE_CLASS "DISPLAY"
COLOR_REP "RGB"

BEGIN_ARGYLL_DISPCAL_ARGS
-v2 -qm -m -w0.3127,0.329 -gs -f1.0 -k0 -A4.0 -d1 -c1 -yn -P0.475468687675,0.649334945586,2.11251980983 -F -X "i1 DisplayPro, ColorMunki Display & Dell, DELL U2718Q (i1 Pro).ccmx"
END_ARGYLL_DISPCAL_ARGS


NUMBER_OF_FIELDS 4
BEGIN_DATA_FORMAT
RGB_I RGB_R RGB_G RGB_B
END_DATA_FORMAT

NUMBER_OF_SETS 256
BEGIN_DATA
0.00000000 0.00000000 0.00000000 0.00000000
0.00392157 0.00528323 0.00522148 0.00572726
0.00784314 0.01051610 0.01037360 0.01133470
0.01176470 0.01569930 0.01545780 0.01682600
0.01568630 0.02083350 0.02047540 0.02220480
0.01960780 0.02591950 0.02542770 0.02747450
0.02352940 0.03095790 0.03031590 0.03263840
0.02745100 0.03594850 0.03513850 0.03769040
0.03137250 0.04088230 0.03988250 0.04261990
0.03529410 0.04575880 0.04453780 0.04741800
0.03921570 0.05057170 0.04909810 0.05206270
0.04313730 0.05530680 0.05355650 0.05654760
0.04705880 0.05995800 0.05791530 0.06087230
0.05098040 0.06451520 0.06217530 0.06504290
0.05490200 0.06897620 0.06634320 0.06907640
0.05882350 0.07335200 0.07043190 0.07299270
0.06274510 0.07765430 0.07445350 0.07680760
0.06666670 0.08188860 0.07841940 0.08053650
0.07058820 0.08605930 0.08233800 0.08419100
0.07450980 0.09017890 0.08621810 0.08778260
0.07843140 0.09425680 0.09006460 0.09132340
0.08235290 0.09830570 0.09388110 0.09482830
0.08627450 0.10233500 0.09767250 0.09830400
0.09019610 0.10634400 0.10144300 0.10175800
0.09411760 0.11033000 0.10519300 0.10518900
0.09803920 0.11429600 0.10891700 0.10859800
0.10196100 0.11825000 0.11261000 0.11200500
0.10588200 0.12219300 0.11627500 0.11541200
0.10980400 0.12612900 0.11991300 0.11882100
0.11372500 0.13006400 0.12352400 0.12224000
0.11764700 0.13400000 0.12710700 0.12567900
0.12156900 0.13793100 0.13066200 0.12913500
0.12549000 0.14185800 0.13419000 0.13260800
0.12941200 0.14578400 0.13769600 0.13609400
0.13333300 0.14970400 0.14119100 0.13959700
0.13725500 0.15361800 0.14467400 0.14311600
0.14117600 0.15752600 0.14814400 0.14664700
0.14509800 0.16142600 0.15159700 0.15018600
0.14902000 0.16531500 0.15503000 0.15372500
0.15294100 0.16918900 0.15844800 0.15725500
0.15686300 0.17302800 0.16185400 0.16078100
0.16078400 0.17682900 0.16524700 0.16431100
0.16470600 0.18059100 0.16862900 0.16783300
0.16862700 0.18431100 0.17199700 0.17134300
0.17254900 0.18798700 0.17534900 0.17484000
0.17647100 0.19162000 0.17868200 0.17832300
0.18039200 0.19521500 0.18199400 0.18179300
0.18431400 0.19877400 0.18528800 0.18524900
0.18823500 0.20230200 0.18856400 0.18869700
0.19215700 0.20581300 0.19183200 0.19214000
0.19607800 0.20930700 0.19509600 0.19558400
0.20000000 0.21278900 0.19835600 0.19903500
0.20392200 0.21626200 0.20161200 0.20249200
0.20784300 0.21972800 0.20486400 0.20595600
0.21176500 0.22318800 0.20811700 0.20943000
0.21568600 0.22664400 0.21136800 0.21292100
0.21960800 0.23009800 0.21461800 0.21642800
0.22352900 0.23355000 0.21786900 0.21994800
0.22745100 0.23699900 0.22112200 0.22346700
0.23137300 0.24044700 0.22437800 0.22698100
0.23529400 0.24388500 0.22763700 0.23049600
0.23921600 0.24731100 0.23090000 0.23400900
0.24313700 0.25073100 0.23416700 0.23751900
0.24705900 0.25415800 0.23745100 0.24102300
0.25098000 0.25759400 0.24075100 0.24453000
0.25490200 0.26103900 0.24406500 0.24803900
0.25882400 0.26449700 0.24739500 0.25153800
0.26274500 0.26796700 0.25073600 0.25502600
0.26666700 0.27144900 0.25409100 0.25850500
0.27058800 0.27494400 0.25745800 0.26197800
0.27451000 0.27846000 0.26083900 0.26544500
0.27843100 0.28199600 0.26423600 0.26891700
0.28235300 0.28554900 0.26765200 0.27240500
0.28627500 0.28911800 0.27108600 0.27590700
0.29019600 0.29270400 0.27452800 0.27942000
0.29411800 0.29630800 0.27797200 0.28294100
0.29803900 0.29992900 0.28141400 0.28646000
0.30196100 0.30356500 0.28485800 0.28997400
0.30588200 0.30721600 0.28830600 0.29348200
0.30980400 0.31087800 0.29176000 0.29699200
0.31372500 0.31454800 0.29521500 0.30050100
0.31764700 0.31822200 0.29866900 0.30400000
0.32156900 0.32189700 0.30212300 0.30748100
0.32549000 0.32557100 0.30557700 0.31094800
0.32941200 0.32924200 0.30903200 0.31439300
0.33333300 0.33291700 0.31248700 0.31781600
0.33725500 0.33659500 0.31595000 0.32121500
0.34117600 0.34026700 0.31941900 0.32459500
0.34509800 0.34393300 0.32288200 0.32796800
0.34902000 0.34759400 0.32634100 0.33133600
0.35294100 0.35125200 0.32979400 0.33469300
0.35686300 0.35491200 0.33324300 0.33804100
0.36078400 0.35857600 0.33668500 0.34138400
0.36470600 0.36225100 0.34012500 0.34472300
0.36862700 0.36593800 0.34356500 0.34805600
0.37254900 0.36963600 0.34700400 0.35139000
0.37647100 0.37333900 0.35043900 0.35472700
0.38039200 0.37704900 0.35386700 0.35806900
0.38431400 0.38077000 0.35729200 0.36141200
0.38823500 0.38450700 0.36071300 0.36475300
0.39215700 0.38826500 0.36413300 0.36810300
0.39607800 0.39204400 0.36755500 0.37146700
0.40000000 0.39583500 0.37098400 0.37484500
0.40392200 0.39963600 0.37441800 0.37824600
0.40784300 0.40343900 0.37785600 0.38167300
0.41176500 0.40722700 0.38129900 0.38512000
0.41568600 0.41099900 0.38474100 0.38858500
0.41960800 0.41475200 0.38817700 0.39206800
0.42352900 0.41848600 0.39160400 0.39556500
0.42745100 0.42220900 0.39501900 0.39907800
0.43137300 0.42592500 0.39842600 0.40259800
0.43529400 0.42963300 0.40182900 0.40612000
0.43921600 0.43333100 0.40522900 0.40965300
0.44313700 0.43702000 0.40863000 0.41320200
0.44705900 0.44069900 0.41204100 0.41676900
0.45098000 0.44436700 0.41546000 0.42035900
0.45490200 0.44802800 0.41888800 0.42396700
0.45882400 0.45168500 0.42232400 0.42759100
0.46274500 0.45533800 0.42576900 0.43123300
0.46666700 0.45899200 0.42922200 0.43489200
0.47058800 0.46265400 0.43268000 0.43855500
0.47451000 0.46632300 0.43614700 0.44221400
0.47843100 0.46999700 0.43961800 0.44587100
0.48235300 0.47368200 0.44309000 0.44954100
0.48627500 0.47737900 0.44656700 0.45321500
0.49019600 0.48109500 0.45005400 0.45688700
0.49411800 0.48482800 0.45355100 0.46056200
0.49803900 0.48858300 0.45705800 0.46424500
0.50196100 0.49236100 0.46057200 0.46793800
0.50588200 0.49616000 0.46409200 0.47164200
0.50980400 0.49998500 0.46761900 0.47536100
0.51372500 0.50383500 0.47115600 0.47909600
0.51764700 0.50768700 0.47471300 0.48284800
0.52156900 0.51154100 0.47828600 0.48661900
0.52549000 0.51539500 0.48187400 0.49041500
0.52941200 0.51924900 0.48547600 0.49420700
0.53333300 0.52310100 0.48909300 0.49798900
0.53725500 0.52695000 0.49272500 0.50176200
0.54117600 0.53079100 0.49637500 0.50552600
0.54509800 0.53462000 0.50004400 0.50927600
0.54902000 0.53843600 0.50373200 0.51301200
0.55294100 0.54223900 0.50743700 0.51673200
0.55686300 0.54603300 0.51115900 0.52043100
0.56078400 0.54981800 0.51490300 0.52411200
0.56470600 0.55359300 0.51866700 0.52777800
0.56862700 0.55736300 0.52244900 0.53143600
0.57254900 0.56113600 0.52624600 0.53508800
0.57647100 0.56491100 0.53005000 0.53873100
0.58039200 0.56868500 0.53386000 0.54236600
0.58431400 0.57245200 0.53767400 0.54601400
0.58823500 0.57621300 0.54148800 0.54968200
0.59215700 0.57996500 0.54528900 0.55337400
0.59607800 0.58370700 0.54906700 0.55708300
0.60000000 0.58744500 0.55282300 0.56080200
0.60392200 0.59118100 0.55656000 0.56452000
0.60784300 0.59491600 0.56028300 0.56824000
0.61176500 0.59864700 0.56399600 0.57196500
0.61568600 0.60237500 0.56770300 0.57570000
0.61960800 0.60611500 0.57141000 0.57944100
0.62352900 0.60987000 0.57512800 0.58318200
0.62745100 0.61363700 0.57885700 0.58692700
0.63137300 0.61741100 0.58260100 0.59068300
0.63529400 0.62118900 0.58635700 0.59445100
0.63921600 0.62496500 0.59012100 0.59823100
0.64313700 0.62874100 0.59389300 0.60201700
0.64705900 0.63252300 0.59767400 0.60579600
0.65098000 0.63631200 0.60145900 0.60956700
0.65490200 0.64011200 0.60524700 0.61334500
0.65882400 0.64392800 0.60904000 0.61713200
0.66274500 0.64776500 0.61284300 0.62092800
0.66666700 0.65162200 0.61665600 0.62474500
0.67058800 0.65549700 0.62047200 0.62859500
0.67451000 0.65938500 0.62428600 0.63248800
0.67843100 0.66328500 0.62809800 0.63641900
0.68235300 0.66719600 0.63190800 0.64038000
0.68627500 0.67111400 0.63571400 0.64436600
0.69019600 0.67503200 0.63950100 0.64837700
0.69411800 0.67895000 0.64326500 0.65240600
0.69803900 0.68286600 0.64700400 0.65642200
0.70196100 0.68677800 0.65071400 0.66041900
0.70588200 0.69068000 0.65439500 0.66439300
0.70980400 0.69457400 0.65804900 0.66833600
0.71372500 0.69846600 0.66168300 0.67224000
0.71764700 0.70235800 0.66530000 0.67611200
0.72156900 0.70625100 0.66890500 0.67996700
0.72549000 0.71015000 0.67249700 0.68381400
0.72941200 0.71405800 0.67607400 0.68765900
0.73333300 0.71797500 0.67964600 0.69150800
0.73725500 0.72190000 0.68322000 0.69536000
0.74117600 0.72582800 0.68679900 0.69921700
0.74509800 0.72975100 0.69038300 0.70307800
0.74902000 0.73366300 0.69397200 0.70694200
0.75294100 0.73756800 0.69756800 0.71080400
0.75686300 0.74146700 0.70117800 0.71466200
0.76078400 0.74535900 0.70480200 0.71852300
0.76470600 0.74924200 0.70844300 0.72239300
0.76862700 0.75313200 0.71211100 0.72626900
0.77254900 0.75703900 0.71581000 0.73014900
0.77647100 0.76096600 0.71954100 0.73403300
0.78039200 0.76491900 0.72330400 0.73791700
0.78431400 0.76890600 0.72709700 0.74180200
0.78823500 0.77292200 0.73091500 0.74569000
0.79215700 0.77696400 0.73475000 0.74958300
0.79607800 0.78103200 0.73860000 0.75346600
0.80000000 0.78513600 0.74245700 0.75732200
0.80392200 0.78928300 0.74632500 0.76115600
0.80784300 0.79347900 0.75020700 0.76498900
0.81176500 0.79772500 0.75410200 0.76882900
0.81568600 0.80201400 0.75800800 0.77268400
0.81960800 0.80632200 0.76191700 0.77655100
0.82352900 0.81064800 0.76582800 0.78042600
0.82745100 0.81497900 0.76973900 0.78431000
0.83137300 0.81930900 0.77364900 0.78819800
0.83529400 0.82364200 0.77756500 0.79208900
0.83921600 0.82798500 0.78148800 0.79598100
0.84313700 0.83233800 0.78542200 0.79988200
0.84705900 0.83669400 0.78936300 0.80381100
0.85098000 0.84102800 0.79331800 0.80776800
0.85490200 0.84534200 0.79728600 0.81175600
0.85882400 0.84963700 0.80126800 0.81577300
0.86274500 0.85391900 0.80526800 0.81981500
0.86666700 0.85819200 0.80928600 0.82388000
0.87058800 0.86245500 0.81331200 0.82797500
0.87451000 0.86670300 0.81733100 0.83210500
0.87843100 0.87093500 0.82133700 0.83626500
0.88235300 0.87515700 0.82533800 0.84044300
0.88627500 0.87937500 0.82933900 0.84462600
0.89019600 0.88359400 0.83334300 0.84880800
0.89411800 0.88780800 0.83735000 0.85299900
0.89803900 0.89201900 0.84135800 0.85721500
0.90196100 0.89623200 0.84536700 0.86146600
0.90588200 0.90044500 0.84937800 0.86575000
0.90980400 0.90466100 0.85338800 0.87006100
0.91372500 0.90887500 0.85740200 0.87438200
0.91764700 0.91307700 0.86142100 0.87871700
0.92156900 0.91726400 0.86544100 0.88307700
0.92549000 0.92144000 0.86946100 0.88745800
0.92941200 0.92561200 0.87348600 0.89186000
0.93333300 0.92977900 0.87751400 0.89628200
0.93725500 0.93394600 0.88153600 0.90073300
0.94117600 0.93811200 0.88555700 0.90519500
0.94509800 0.94227400 0.88957800 0.90967300
0.94902000 0.94643200 0.89360000 0.91417000
0.95294100 0.95058000 0.89762900 0.91869100
0.95686300 0.95472000 0.90166900 0.92324200
0.96078400 0.95886000 0.90571600 0.92781800
0.96470600 0.96300500 0.90977300 0.93241300
0.96862700 0.96715400 0.91384100 0.93702100
0.97254900 0.97130500 0.91792200 0.94164700
0.97647100 0.97545600 0.92201200 0.94628900
0.98039200 0.97960900 0.92611000 0.95094600
0.98431400 0.98376200 0.93021600 0.95561600
0.98823500 0.98791600 0.93433000 0.96030000
0.99215700 0.99207200 0.93845300 0.96499700
0.99607800 0.99622800 0.94258500 0.96970900
1.00000000 1.00000000 0.94672400 0.97443400
END_DATA
