CTI3   

DESCRIPTOR "Argyll Calibration Target chart information 3"
ORIGINATOR "Argyll dispread"
CREATED "Tue May 26 15:31:53 2020"
DEVICE_CLASS "DISPLAY"
SINGLE_DIM_STEPS "25"
COMP_GREY_STEPS "73"
DARK_REGION_EMPHASIS "1.6"
COLOR_REP "RGB_XYZ"
TARGET_INSTRUMENT "X-Rite i1 DisplayPro, ColorMunki Display"
DISPLAY_TYPE_REFRESH "NO"
DISPLAY_TYPE_BASE_ID "1"
INSTRUMENT_TYPE_SPECTRAL "NO"
LUMINANCE_XYZ_CDM2 "328.960389 345.554802 380.011882"
NORMALIZED_TO_Y_100 "YES"
VIDEO_LUT_CALIBRATION_POSSIBLE "YES"

BEGIN_ARGYLL_COLPROF_ARGS
-v -qh -aS -C "No copyright. Created with DisplayCAL 3.8.9.3 and ArgyllCMS 2.1.2" -M "MacBookPro11,1" -A "Apple Computer Inc"
END_ARGYLL_COLPROF_ARGS

OBSERVER "1931_2"
USE_BLACK_POINT_COMPENSATION "YES"
BLACK_POINT_CORRECTION "0.0"
HIRES_B2A "YES"
HIRES_B2A_SIZE "-1"
SMOOTH_B2A "YES"
PATCH_SEQUENCE "OPTIMIZE_DISPLAY_RESPONSE_DELAY"

NUMBER_OF_FIELDS 7
BEGIN_DATA_FORMAT
SAMPLE_ID RGB_R RGB_G RGB_B XYZ_X XYZ_Y XYZ_Z
END_DATA_FORMAT

NUMBER_OF_SETS 825
BEGIN_DATA
1 100.0000 100.0000 100.0000 95.19775 100.0000 109.9715
2 1.960800 1.960800 1.960800 0.288149 0.294467 0.398887
3 3.921600 3.921600 3.921600 0.449623 0.467488 0.575883
4 5.882400 5.882400 5.882400 0.614077 0.633516 0.749650
5 9.803900 9.803900 9.803900 1.101623 1.130027 1.342014
6 13.72600 13.72600 13.72600 1.786312 1.871818 2.174667
7 17.64700 17.64700 17.64700 2.656677 2.807586 3.106443
8 21.56900 21.56900 21.56900 3.789579 3.985720 4.455236
9 25.49000 25.49000 25.49000 5.175451 5.448068 6.063353
10 29.41200 29.41200 29.41200 6.757803 7.155669 7.793814
11 33.33300 33.33300 33.33300 8.750393 9.216544 10.04539
12 37.25500 37.25500 37.25500 10.88075 11.46145 12.48047
13 41.17600 41.17600 41.17600 13.31265 13.99893 15.45515
14 45.09800 45.09800 45.09800 16.15438 16.93790 18.54028
15 49.02000 49.02000 49.02000 19.32077 20.39920 22.12410
16 52.94100 52.94100 52.94100 23.01667 24.19848 26.31034
17 56.86300 56.86300 56.86300 26.90803 28.26341 31.10289
18 60.78400 60.78400 60.78400 31.13509 32.81055 36.00839
19 64.70600 64.70600 64.70600 35.65616 37.58821 41.02324
20 68.62700 68.62700 68.62700 40.76155 42.95040 47.02872
21 72.54900 72.54900 72.54900 45.88033 48.22093 52.86749
22 76.47100 76.47100 76.47100 51.53089 54.27981 59.86608
23 80.39200 80.39200 80.39200 57.85048 60.64506 66.63964
24 84.31400 84.31400 84.31400 64.28955 67.59583 74.46595
25 88.23500 88.23500 88.23500 71.37764 75.10946 82.18182
26 92.15700 92.15700 92.15700 79.15561 83.34238 91.32885
27 96.07800 96.07800 96.07800 87.22364 91.83260 100.2008
28 31.28150 40.89400 76.08020 18.46288 15.53124 53.79349
29 40.12970 62.94790 78.37870 29.17809 32.44836 59.57859
30 38.68330 67.68800 76.80270 30.68843 36.62529 57.75577
31 67.01110 68.04710 78.02530 42.24116 43.04821 60.32688
32 71.16160 81.32250 91.13330 56.23128 60.02011 85.69687
33 100.0000 29.62290 0.000000 41.93142 26.10129 2.311001
34 100.0000 38.60590 23.97240 44.83942 30.26620 7.604490
35 82.37940 24.24020 0.000000 26.64367 16.73137 1.544976
36 84.96900 100.0000 0.000000 63.63214 85.86851 12.26659
37 100.0000 100.0000 0.000000 75.97581 92.52734 12.73967
38 100.0000 100.0000 23.35290 77.01568 93.01014 17.46165
39 100.0000 100.0000 41.01620 78.88792 93.76590 26.96025
40 13.15790 0.000000 0.000000 0.752005 0.455470 0.249248
41 15.76580 0.000000 0.000000 0.975854 0.574663 0.256408
42 18.51850 0.000000 0.000000 1.224496 0.706468 0.264067
43 21.42860 0.000000 0.000000 1.579481 0.895108 0.275238
44 24.50980 0.000000 0.000000 1.905866 1.068779 0.285448
45 27.77780 0.000000 0.000000 2.525669 1.398318 0.305106
46 31.25000 0.000000 0.000000 3.152565 1.731337 0.325346
47 34.94620 0.000000 0.000000 3.829711 2.091021 0.346534
48 38.88890 0.000000 0.000000 4.845188 2.631994 0.378478
49 43.10350 0.000000 0.000000 5.985051 3.235858 0.410341
50 47.61910 0.000000 0.000000 7.236242 3.903485 0.454986
51 52.46910 0.000000 0.000000 9.196909 4.943058 0.516176
52 57.69230 0.000000 0.000000 11.24531 6.033807 0.582672
53 63.33330 0.000000 0.000000 13.79763 7.388690 0.663897
54 69.44440 0.000000 0.000000 16.84864 9.011805 0.762464
55 76.08700 0.000000 0.000000 20.56231 10.98440 0.881614
56 83.33330 0.000000 0.000000 25.61912 13.67232 1.047465
57 82.52630 51.11080 33.97810 35.05153 30.04536 12.81065
58 100.0000 76.66610 68.42610 67.56152 63.28629 49.00524
59 100.0000 89.97880 82.01410 80.35238 81.93474 72.33184
60 0.000000 0.000000 18.51850 0.652273 0.328135 2.934973
61 0.000000 0.000000 21.42860 0.832951 0.397632 3.866495
62 46.98710 28.76060 64.06380 16.60609 11.40473 36.09841
63 59.59400 31.87750 71.25760 24.25292 15.99341 46.45306
64 59.77500 45.91760 79.26620 30.05766 23.61118 59.25166
65 0.000000 15.76580 0.000000 0.902670 1.629997 0.456389
66 0.000000 18.51850 0.000000 1.136909 2.087197 0.526200
67 0.000000 21.42860 0.000000 1.512242 2.818019 0.637057
68 0.000000 24.50980 0.000000 1.840678 3.458000 0.733402
69 0.000000 27.77780 0.000000 2.363086 4.491248 0.890461
70 0.000000 31.25000 0.000000 2.932528 5.603130 1.059172
71 0.000000 34.94620 0.000000 3.597369 6.876382 1.254651
72 0.000000 38.88890 0.000000 4.542940 8.722294 1.533675
73 0.000000 43.10350 0.000000 5.538179 10.67647 1.831862
74 0.000000 47.61910 0.000000 6.867347 13.22296 2.220400
75 0.000000 52.46910 0.000000 8.560546 16.57048 2.734214
76 0.000000 57.69230 0.000000 10.51134 20.39222 3.315488
77 0.000000 63.33330 0.000000 12.99481 25.23932 4.064132
78 0.000000 69.44440 0.000000 15.97883 31.04677 4.957679
79 0.000000 76.08700 0.000000 19.45870 37.84809 6.010007
80 28.71160 80.94680 0.000000 24.92557 44.77414 6.954899
81 39.06740 100.0000 23.28940 42.59849 74.57415 15.97332
82 59.58600 100.0000 45.68350 52.53349 79.52882 28.93900
83 0.000000 0.000000 1.938000 0.155831 0.134960 0.376250
84 0.000000 0.000000 3.968300 0.185775 0.146635 0.529752
85 0.000000 0.000000 6.097600 0.222248 0.160952 0.717928
86 0.000000 0.000000 8.333300 0.261432 0.176508 0.920647
87 0.000000 0.000000 10.68380 0.343298 0.208415 1.338617
88 0.000000 0.000000 13.15790 0.436334 0.244750 1.822179
89 0.000000 18.11530 68.39880 8.986813 5.134786 40.83935
90 21.55770 29.73280 76.72520 14.50059 9.970268 53.65065
91 96.99450 96.99450 96.99450 88.74410 93.37751 102.0393
92 100.0000 100.0000 100.0000 95.18355 99.99057 110.0266
93 0.000000 0.000000 24.50980 0.998910 0.461334 4.721786
94 0.000000 0.000000 27.77780 1.271186 0.566114 6.126150
95 0.000000 0.000000 31.25000 1.586044 0.687004 7.745756
96 0.000000 0.000000 34.94620 1.917964 0.814510 9.457682
97 0.000000 0.000000 38.88890 2.387242 0.994581 11.88712
98 0.000000 0.000000 43.10350 2.877219 1.181227 14.41264
99 0.000000 0.000000 47.61910 3.495173 1.419841 17.59705
100 0.000000 0.000000 57.69230 5.398057 2.146172 27.42467
101 0.000000 0.000000 63.33330 6.697187 2.638460 34.12275
102 0.000000 0.000000 69.44440 8.229065 3.222440 42.02875
103 0.000000 0.000000 76.08700 10.07861 3.922513 51.58176
104 0.000000 0.000000 83.33330 12.43655 4.795734 63.71478
105 0.000000 33.84300 100.0000 22.29393 13.87635 97.75995
106 0.000000 46.00370 100.0000 25.30440 19.72731 98.69218
107 100.0000 44.94920 68.94200 53.94838 36.51537 45.90375
108 100.0000 44.12250 83.14970 57.95651 37.71327 67.31153
109 1.938000 1.938000 1.938000 0.288051 0.294362 0.399204
110 2.604200 2.604200 2.604200 0.365776 0.369833 0.469663
111 3.280800 3.280800 3.280800 0.397103 0.404009 0.505596
112 3.968300 3.968300 3.968300 0.449336 0.467307 0.576148
113 4.666700 4.666700 4.666700 0.522018 0.543877 0.665422
114 5.376300 5.376300 5.376300 0.574391 0.591199 0.706615
115 6.097600 6.097600 6.097600 0.637770 0.667168 0.793917
116 6.830600 6.830600 6.830600 0.682060 0.713687 0.844583
117 7.575800 7.575800 7.575800 0.764590 0.779926 0.953274
118 8.333300 8.333300 8.333300 0.843570 0.884130 1.027421
119 9.103600 9.103600 9.103600 0.982185 1.030773 1.183826
120 9.887000 9.887000 9.887000 1.100724 1.129304 1.341207
121 10.68380 10.68380 10.68380 1.215477 1.270152 1.504371
122 11.49420 11.49420 11.49420 1.357676 1.428718 1.620611
123 12.31880 12.31880 12.31880 1.492776 1.541878 1.799401
124 13.15790 13.15790 13.15790 1.696454 1.776803 2.070145
125 14.01180 14.01180 14.01180 1.863053 1.964234 2.187513
126 14.88100 14.88100 14.88100 2.053934 2.166570 2.405244
127 15.76580 15.76580 15.76580 2.206139 2.295485 2.608158
128 16.66670 16.66670 16.66670 2.462245 2.584140 2.975582
129 17.58410 17.58410 17.58410 2.654356 2.805850 3.107291
130 18.51850 18.51850 18.51850 2.835840 2.955751 3.363054
131 19.47040 19.47040 19.47040 3.150150 3.302107 3.787060
132 20.44020 20.44020 20.44020 3.372371 3.552963 3.949769
133 21.42860 21.42860 21.42860 3.765572 3.976188 4.457456
134 22.43590 22.43590 22.43590 4.033843 4.200602 4.769680
135 23.46280 23.46280 23.46280 4.372917 4.609758 5.147111
136 24.50980 24.50980 24.50980 4.634672 4.895210 5.461383
137 25.57760 25.57760 25.57760 5.151789 5.439438 6.069967
138 26.66670 26.66670 26.66670 5.581280 5.845035 6.473625
139 27.77780 27.77780 27.77780 6.106854 6.415422 7.108172
140 28.91160 28.91160 28.91160 6.562180 6.953239 7.576622
141 30.06870 30.06870 30.06870 7.066848 7.403930 8.248560
142 31.25000 31.25000 31.25000 7.694746 8.059554 8.992461
143 32.45610 32.45610 32.45610 8.288266 8.735399 9.531400
144 33.68790 33.68790 33.68790 8.950631 9.401105 10.31577
145 34.94620 34.94620 34.94620 9.408352 9.887369 11.00338
146 36.23190 36.23190 36.23190 10.10104 10.61465 11.60081
147 37.54580 37.54580 37.54580 11.14033 11.75504 12.81402
148 38.88890 38.88890 38.88890 11.95554 12.55028 13.85986
149 40.26220 40.26220 40.26220 12.77666 13.46474 14.79763
150 41.66670 41.66670 41.66670 13.59857 14.30286 15.78909
151 43.10350 43.10350 43.10350 14.64879 15.37281 16.78096
152 44.57360 44.57360 44.57360 15.87461 16.64043 18.21344
153 46.07840 46.07840 46.07840 16.64812 17.53880 19.37165
154 47.61910 47.61910 47.61910 17.93908 18.94209 20.53043
155 49.19680 49.19680 49.19680 19.31978 20.41566 22.18399
156 50.81300 50.81300 50.81300 21.16450 22.28916 24.00217
157 52.46910 52.46910 52.46910 22.61254 23.78624 25.93009
158 54.16670 54.16670 54.16670 24.08059 25.38166 27.85935
159 55.90720 55.90720 55.90720 26.22749 27.67022 30.28485
160 57.69230 57.69230 57.69230 27.73071 29.18023 31.82716
161 59.52380 59.52380 59.52380 29.94998 31.48010 34.47174
162 61.40350 61.40350 61.40350 31.94843 33.51468 37.11523
163 63.33330 63.33330 63.33330 34.18039 36.00694 39.43286
164 65.31530 65.31530 65.31530 36.65362 38.66529 42.46456
165 67.35160 67.35160 67.35160 39.06276 41.20254 45.33021
166 69.44440 69.44440 69.44440 41.82256 44.12491 48.47195
167 71.59620 71.59620 71.59620 44.79138 47.07415 51.83094
168 73.80950 73.80950 73.80950 47.41445 49.95066 55.13900
169 76.08700 76.08700 76.08700 50.94698 53.67029 59.32727
170 78.43140 78.43140 78.43140 54.35479 57.11076 62.96278
171 80.84580 80.84580 80.84580 58.53284 61.36974 67.59022
172 83.33330 83.33330 83.33330 62.93135 66.12769 72.99264
173 85.89740 85.89740 85.89740 67.11337 70.53734 78.06253
174 88.54170 88.54170 88.54170 72.10197 75.90242 83.19114
175 91.26980 91.26980 91.26980 77.71731 81.78952 89.63886
176 94.08600 94.08600 94.08600 83.21840 87.53040 96.25087
177 100.0000 0.000000 32.38980 40.85507 21.53798 9.893717
178 100.0000 0.000000 45.16150 42.42689 22.14028 17.95476
179 91.26980 0.000000 0.000000 31.76269 16.94750 1.258252
180 100.0000 0.000000 0.000000 39.17442 20.88053 1.527773
181 100.0000 0.000000 17.75280 39.72725 21.09718 4.147674
182 100.0000 22.71230 30.68470 42.35742 24.63789 9.579169
183 100.0000 39.75700 51.83390 48.47645 32.02343 25.17796
184 18.88350 27.77800 0.000000 3.569240 5.162863 0.936863
185 32.34640 32.79880 0.000000 6.572607 8.092578 1.280343
186 46.69860 53.16780 35.86270 18.09505 22.14997 13.04731
187 49.34880 56.55630 64.38330 25.31049 26.92586 39.14094
188 58.68580 56.49050 71.34310 31.12457 29.76847 48.72432
189 79.31990 52.21870 81.83210 43.68204 33.80838 65.15434
190 100.0000 60.10890 86.93730 65.04551 49.50718 75.65089
191 100.0000 62.33620 100.0000 71.24906 53.36054 102.4045
192 13.66450 0.000000 10.50350 1.011347 0.563168 1.376574
193 21.48480 6.693300 12.87260 2.132611 1.459886 1.905621
194 0.000000 0.000000 15.76580 0.526751 0.279483 2.286894
195 10.23120 6.775800 21.78670 1.542057 1.079977 4.160869
196 12.87330 35.19490 34.12930 6.212560 8.264318 10.43212
197 34.07220 44.10490 48.44880 13.41591 14.87613 21.13626
198 47.75610 47.15130 73.31130 23.79257 21.04297 50.28476
199 100.0000 76.45810 87.84730 73.59279 65.65012 79.80622
200 100.0000 86.31870 87.52720 79.56577 77.56381 81.01500
201 100.0000 90.90290 100.0000 88.12281 86.25668 107.7039
202 0.000000 8.333300 0.000000 0.404630 0.661758 0.310444
203 21.48510 9.309000 0.000000 1.926656 1.554104 0.374528
204 33.38930 13.19240 0.000000 4.213798 3.155521 0.518888
205 52.69380 82.62360 0.000000 32.83241 50.79599 7.562787
206 81.66410 100.0000 43.27930 64.44241 85.93216 27.43453
207 0.000000 0.000000 52.46910 4.409577 1.767178 22.31867
208 24.35670 0.000000 54.31380 6.693851 2.911310 24.77784
209 27.15190 0.000000 76.25190 12.48625 5.185076 52.00613
210 47.90710 18.90550 85.76430 22.09172 11.36520 69.34223
211 47.80520 23.36970 100.0000 28.25850 14.57525 97.73547
212 0.000000 89.38080 100.0000 47.17841 62.43776 105.5100
213 29.14680 89.72320 100.0000 50.42779 64.74976 105.8841
214 0.000000 0.000000 0.000000 0.127986 0.123657 0.229902
215 34.59530 68.01990 0.000000 19.03089 31.62864 4.862488
216 72.00010 69.88250 44.44650 38.26471 43.24377 21.61786
217 75.13610 78.52880 56.54400 46.70085 53.79404 34.53549
218 81.37380 77.82920 67.78410 53.27354 56.22436 47.95015
219 38.95830 49.63190 0.000000 12.57052 17.51512 2.641075
220 42.81200 53.97380 44.09780 18.36215 22.55111 18.60470
221 51.01330 60.67670 54.74750 25.90831 30.18676 29.50706
222 100.0000 64.84510 57.03910 58.73054 50.30985 33.68800
223 100.0000 89.60350 61.20510 74.23858 79.02721 43.06291
224 100.0000 100.0000 69.43480 84.55329 95.89222 56.38790
225 0.000000 57.22310 61.80420 16.78951 22.77082 35.68161
226 0.000000 63.16940 79.26250 23.96587 29.45779 60.54301
227 0.000000 75.83920 82.57250 31.64583 42.52257 68.72969
228 0.000000 33.23860 82.32600 15.45902 11.20801 63.00634
229 86.26340 40.08580 100.0000 51.90454 31.78268 99.47788
230 100.0000 46.94340 100.0000 65.37806 41.90708 100.6519
231 55.65570 0.000000 46.49220 13.92345 6.959884 18.02562
232 61.97800 0.000000 61.96190 19.58923 9.524630 33.05134
233 64.28320 0.000000 79.73500 25.49787 11.94552 57.75045
234 65.51090 38.44010 100.0000 38.68517 24.23698 98.89330
235 0.000000 57.43850 100.0000 29.39637 27.68455 100.0282
236 0.000000 69.23220 100.0000 35.07405 38.76016 101.7224
237 0.000000 79.28650 100.0000 40.25422 48.86657 103.4080
238 0.000000 100.0000 100.0000 55.44397 78.59292 108.2949
239 41.14570 61.90360 14.80030 18.24917 27.17488 6.049635
240 29.45930 100.0000 0.000000 39.31124 72.82302 11.48395
241 51.48480 100.0000 0.000000 45.53527 76.14903 11.66508
242 68.85940 100.0000 0.000000 53.50471 80.41980 11.94494
243 84.42830 100.0000 25.51960 64.22498 86.06660 17.81558
244 0.000000 83.23780 65.05820 30.97223 49.20676 44.04851
245 0.000000 100.0000 72.82040 45.77558 74.93776 58.77376
246 31.44190 100.0000 77.64480 50.51598 77.35299 66.16649
247 88.00960 100.0000 89.29520 80.62665 92.82519 87.74490
248 0.000000 22.70190 12.17820 1.912802 3.178999 2.066758
249 19.59820 61.80650 25.61130 14.69321 25.17930 9.182334
250 29.81700 64.15160 38.71420 18.86652 28.96571 16.50488
251 58.62830 70.49850 44.70870 32.04984 40.44142 21.77582
252 37.52290 55.92210 64.27410 21.81445 25.04853 38.99787
253 57.02940 68.61900 66.41240 34.53937 39.72595 43.83465
254 30.31540 52.11580 39.95110 14.01929 19.24167 15.53566
255 40.71810 78.52530 39.10610 28.69516 44.52239 18.92584
256 40.67270 76.39110 57.55720 30.81568 43.85724 34.44648
257 67.79490 87.99980 74.76300 53.54870 65.78471 59.71102
258 0.000000 32.37600 44.67860 6.290418 7.387206 16.82961
259 0.000000 31.74310 56.56220 8.270193 7.897257 27.75237
260 0.000000 13.72460 53.07620 5.181702 3.073931 23.15378
261 51.21240 15.95560 52.99850 14.33752 8.228311 23.87032
262 68.45770 15.51530 59.09530 23.31835 12.76112 30.73880
263 15.70430 38.98080 21.86760 6.292783 9.710389 5.513221
264 26.46080 39.54470 28.68790 8.263782 10.87602 8.218100
265 46.79030 39.70850 100.0000 30.92737 20.38731 98.67227
266 31.60630 0.000000 100.0000 22.09705 8.831062 96.90823
267 30.15180 79.79030 100.0000 43.68942 51.23499 103.7252
268 54.89290 100.0000 100.0000 66.15866 84.37136 108.8881
269 83.12640 40.05950 0.000000 30.21421 22.88645 2.462649
270 84.86570 54.04310 0.000000 35.82770 32.21707 3.834069
271 85.97680 62.21810 16.29310 40.66845 39.50207 7.296928
272 100.0000 65.36900 34.79570 55.57630 49.64934 15.79601
273 100.0000 74.98390 50.84990 62.65929 59.89171 28.89415
274 64.12910 18.75960 0.000000 15.36912 9.756039 1.000102
275 64.31110 24.95320 21.47070 17.07958 11.74013 5.070138
276 69.51550 25.82790 32.68140 20.79356 13.80465 9.720280
277 0.000000 91.26980 0.000000 29.77208 58.03805 9.202773
278 0.000000 100.0000 44.40300 39.61473 72.54501 27.20432
279 0.000000 100.0000 59.41380 42.46831 73.66048 41.80871
280 26.97220 100.0000 60.47310 45.21301 75.16377 43.16692
281 0.000000 63.86050 53.89740 18.01139 27.75650 28.04707
282 45.12390 75.31030 74.00700 35.69046 44.88603 55.45319
283 48.12080 77.39130 100.0000 47.08371 50.93827 103.5033
284 66.55150 87.32860 100.0000 61.89564 68.50925 105.9369
285 73.65960 100.0000 100.0000 75.35370 89.28068 109.2699
286 100.0000 100.0000 100.0000 95.09020 99.89666 110.0814
287 0.000000 50.00600 45.26140 11.00216 16.43663 18.61452
288 13.98220 56.69330 56.09680 16.29928 22.54113 29.85554
289 67.21130 57.21490 58.28580 32.07108 31.23269 32.95021
290 52.18150 0.000000 14.08620 9.430286 5.021846 2.250028
291 67.86790 0.000000 13.61320 16.38003 8.713963 2.483570
292 75.92930 0.000000 26.11570 21.70350 11.44214 6.258444
293 100.0000 0.000000 69.75130 47.66193 24.13585 44.96692
294 100.0000 0.000000 83.31030 51.63903 25.62459 65.22512
295 100.0000 25.58860 84.33060 54.24330 29.89748 68.22695
296 46.44320 39.12810 0.000000 11.40764 12.50435 1.779262
297 50.78740 47.96930 26.32940 16.95018 18.92142 8.057960
298 53.39510 83.80030 29.83400 35.60519 53.39254 14.95440
299 0.000000 49.33310 19.24590 8.158359 14.87134 5.482347
300 0.000000 49.65050 33.39750 9.395689 15.58063 11.10678
301 0.000000 100.0000 86.77060 50.11329 76.58530 80.95403
302 26.30010 100.0000 90.22280 53.87476 78.45963 88.18764
303 30.80580 100.0000 100.0000 58.78160 80.44841 108.6600
304 100.0000 21.57900 14.58440 41.08686 23.93990 3.877159
305 100.0000 40.81490 38.50600 46.79867 31.86784 15.19149
306 0.000000 10.68380 0.000000 0.542196 0.928760 0.351370
307 0.000000 13.15790 0.000000 0.724684 1.283499 0.404714
308 24.78820 16.60410 20.27690 3.545791 3.090593 3.854639
309 25.47100 18.92660 74.58380 12.92153 7.030251 50.16057
310 0.000000 9.707100 37.69130 2.605293 1.646124 11.23477
311 55.59830 19.40760 40.21160 14.26783 8.900813 13.87317
312 55.05480 43.16190 66.58440 23.54300 19.47735 41.13271
313 82.08700 0.000000 38.07540 27.07798 14.12775 12.50014
314 100.0000 0.000000 57.20740 44.58155 22.95462 29.09995
315 100.0000 27.17420 56.98690 46.93699 27.41363 30.01881
316 26.74570 0.000000 22.68310 3.119131 1.602914 4.291847
317 35.22330 14.47210 22.99780 5.548815 3.921764 4.796718
318 43.35380 0.000000 27.47490 7.311725 3.779087 6.272807
319 59.44200 0.000000 27.69830 13.45095 7.033446 6.689481
320 78.21600 0.000000 100.0000 40.96120 18.84778 97.66799
321 100.0000 0.000000 100.0000 58.10981 27.96336 98.38385
322 100.0000 26.15050 100.0000 60.40363 32.28002 99.19126
323 0.000000 100.0000 0.000000 36.48905 71.23434 11.38175
324 0.000000 100.0000 25.46530 37.58303 71.74700 16.71749
325 31.24280 100.0000 38.87460 42.26270 74.15131 23.94597
326 39.54930 100.0000 52.29260 46.30331 76.01020 34.30990
327 59.11800 100.0000 79.68800 60.32672 82.47541 69.78734
328 0.000000 0.000000 91.26980 15.28579 5.847031 78.42816
329 0.000000 0.000000 100.0000 18.82455 7.097063 96.70915
330 0.000000 19.52040 100.0000 20.04331 9.451031 97.17004
331 47.55600 53.37610 100.0000 35.64927 29.08775 100.0662
332 21.14110 0.000000 36.03790 3.470073 1.619667 10.16753
333 26.22140 9.483700 46.29980 5.984122 3.231298 17.58942
334 0.000000 11.02600 29.19940 1.816307 1.483861 6.725871
335 0.000000 35.80580 28.78920 5.076683 7.831532 7.747476
336 0.000000 40.80560 44.34830 8.046173 10.88267 17.13647
337 0.000000 55.56790 81.75680 21.79562 23.96755 63.72880
338 33.24220 57.90630 90.73870 29.66564 29.00106 80.79718
339 57.42820 0.000000 100.0000 30.20975 13.12997 97.29636
340 62.86860 19.32640 100.0000 33.99577 16.83132 97.85063
341 67.10700 65.57290 100.0000 49.33547 43.75931 102.0283
342 85.01870 65.70150 100.0000 60.67181 50.03584 102.5104
343 64.47960 42.80550 0.000000 19.75569 18.22797 2.291175
344 76.36170 65.39430 17.52630 35.77535 39.10222 7.786529
345 54.31810 51.91970 0.000000 18.31769 21.57284 3.017143
346 68.60170 54.85520 0.000000 26.20197 27.55129 3.604697
347 80.99140 75.48550 10.64970 43.91581 50.58698 7.957150
348 62.64860 69.87530 33.79340 32.05761 40.09034 14.73014
349 75.19820 82.36590 39.52490 46.30038 57.50337 20.57963
350 0.000000 44.32820 65.26910 13.07691 14.29160 38.45578
351 0.000000 44.01250 79.81190 17.12347 15.66139 59.70088
352 0.000000 85.76140 81.85610 37.70079 54.79814 69.39333
353 100.0000 49.26860 0.000000 46.82920 35.78770 3.805235
354 100.0000 67.85250 0.000000 54.53680 50.80323 6.116762
355 100.0000 74.28650 24.78530 58.93101 57.69036 12.19499
356 100.0000 83.08380 42.92260 66.24161 68.97513 23.65725
357 100.0000 85.38670 68.13470 73.10406 74.16338 50.97315
358 0.636100 0.636100 0.636100 0.178409 0.176509 0.287078
359 1.282100 1.282100 1.282100 0.218367 0.220747 0.321965
360 0.000000 1.938000 0.000000 0.190131 0.244961 0.247747
361 0.000000 3.968300 0.000000 0.252743 0.367749 0.266221
362 0.000000 6.097600 0.000000 0.326344 0.509530 0.287706
363 14.05170 12.75030 0.000000 1.408466 1.620057 0.421438
364 23.19450 16.59780 31.93370 4.224947 3.320712 8.516629
365 35.05250 24.38850 42.79830 8.502331 6.692331 15.18918
366 53.27630 29.31330 42.49170 15.12636 11.42243 15.38734
367 66.14270 30.57040 51.77160 22.48101 15.35807 23.48059
368 70.32940 43.92540 62.66070 30.06115 23.40161 36.42419
369 0.000000 7.592700 11.71160 0.615085 0.680250 1.589463
370 34.22070 26.30690 14.85820 6.241053 6.194511 2.897030
371 61.76420 37.09120 25.47850 18.40668 15.65011 7.168276
372 37.37530 24.24010 0.000000 6.221349 5.837012 0.883498
373 43.29800 32.87620 45.37840 12.68711 10.98836 18.11222
374 66.58520 49.69400 69.60630 31.82049 26.80856 45.85908
375 74.05270 62.70440 69.26910 40.95413 38.82476 47.62621
376 38.79950 0.000000 15.31550 5.279218 2.808992 2.389133
377 37.25460 0.000000 35.67380 6.384426 3.173820 10.05697
378 39.88640 0.000000 49.54800 9.065376 4.314893 19.92539
379 72.49810 9.831300 52.18500 23.56714 12.47939 23.25062
380 0.000000 0.000000 0.000000 0.127911 0.123591 0.229939
381 3.968300 0.000000 0.000000 0.258856 0.193572 0.234425
382 22.71750 39.99620 0.000000 6.465148 10.16679 1.677943
383 23.97320 55.05450 0.000000 11.37606 19.55376 3.111066
384 50.62380 64.17740 0.000000 21.94019 30.81230 4.513109
385 67.58610 67.50470 0.000000 30.87223 37.72463 5.212333
386 84.74350 68.59640 0.000000 42.28879 44.77072 5.773688
387 100.0000 83.23310 0.000000 63.12262 67.54688 8.726707
388 100.0000 100.0000 55.89120 81.34219 94.63721 40.35670
389 0.000000 20.32440 16.65260 1.822012 2.727225 2.886072
390 0.000000 20.25560 27.35220 2.508802 2.999645 6.406709
391 0.000000 20.90930 36.96700 3.458431 3.450485 11.03205
392 0.000000 48.03260 59.95840 13.01762 15.99593 32.76560
393 33.45970 47.96850 74.24020 20.38914 19.54947 51.57666
394 82.64800 75.87100 100.0000 64.09316 59.14202 104.0410
395 100.0000 78.50070 100.0000 79.51047 69.48188 105.1339
396 12.22270 18.40790 0.000000 1.721560 2.414629 0.549140
397 18.93680 25.38020 17.24080 3.754550 4.757716 3.306029
398 21.10300 26.00890 39.62140 6.002159 5.784033 13.17725
399 51.09770 35.38950 40.54330 15.05783 12.94519 14.58902
400 68.61040 41.44030 39.23880 24.39086 20.13517 14.56709
401 100.0000 54.88350 63.72670 56.07342 42.81352 40.14736
402 100.0000 71.31720 73.68250 66.09758 58.21086 55.87201
403 6.097600 0.000000 0.000000 0.333522 0.233186 0.236273
404 8.333300 0.000000 0.000000 0.417007 0.277545 0.238956
405 10.68380 0.000000 0.000000 0.559865 0.353626 0.243564
406 0.000000 83.33330 0.000000 23.96421 46.70225 7.410811
407 0.000000 82.68660 48.02090 27.08830 47.22484 25.54051
408 66.16250 100.0000 63.58190 59.06704 82.47402 47.25767
409 88.01140 100.0000 73.35520 75.30645 90.77306 61.06308
410 100.0000 100.0000 81.50650 88.04488 97.23728 74.61622
411 100.0000 100.0000 91.48200 91.55665 98.56383 92.45893
412 48.06990 17.54420 0.000000 8.592493 6.024819 0.759169
413 48.69780 24.69860 16.85530 10.13903 7.972338 3.498686
414 55.39060 41.07660 22.76760 16.34528 15.88560 6.194573
415 58.84250 42.10080 37.05650 19.46252 17.68217 12.89633
416 72.48870 59.40630 44.21930 33.41026 33.46665 20.09789
417 81.01470 63.76930 55.51910 43.20398 41.40272 31.57590
418 81.36480 72.51510 75.13630 52.37136 51.60173 57.73080
419 78.69640 0.000000 61.48540 28.83336 14.44450 33.54260
420 81.88360 0.000000 80.52510 36.33931 17.65292 59.71544
421 83.78930 31.63050 85.96400 42.70474 25.12878 70.90816
422 24.44160 20.88940 88.20100 17.39392 9.079695 73.00550
423 26.14070 30.54510 100.0000 24.01258 13.90952 98.00921
424 28.15630 56.24500 100.0000 31.88413 28.66297 100.2816
425 69.57100 79.05190 100.0000 57.85601 58.48280 104.3453
426 88.58930 86.95280 100.0000 75.66731 75.46603 106.5031
427 86.96640 64.51260 67.26400 50.32141 45.40689 45.66864
428 90.05690 76.53430 68.98110 59.34814 58.81592 49.93570
429 91.50990 86.30860 69.60400 66.67936 71.41632 52.51018
430 38.13310 76.49050 19.71810 25.24644 41.50548 9.567558
431 65.53400 88.74720 45.45460 46.21833 63.60169 26.18308
432 73.64130 92.23150 62.64810 56.75771 72.65273 44.37810
433 76.47640 100.0000 77.97110 68.71897 87.04003 67.75578
434 36.44430 64.04260 27.41340 18.88551 28.86105 10.36666
435 51.57010 72.60680 32.18640 28.37967 39.89842 13.95821
436 91.12710 82.32730 33.06410 56.86553 63.32032 17.16095
437 59.20550 28.50870 11.15930 14.82717 11.38427 2.505660
438 58.64720 30.64210 28.12060 16.01324 12.33333 7.817632
439 34.05020 12.46230 8.517200 4.499056 3.215097 1.288550
440 42.56890 17.91610 20.35600 7.704674 5.539431 4.053162
441 53.88440 19.49960 21.95650 11.82847 7.914890 4.829648
442 58.18790 26.69880 33.46060 15.48145 11.06125 10.02116
443 60.60160 41.12280 52.61290 22.42651 18.64022 25.02151
444 69.86890 78.26670 81.29450 50.25633 54.78037 67.60608
445 74.85040 89.58030 92.77760 64.88353 72.51241 92.09914
446 8.200700 38.45600 46.79870 8.295814 10.26534 19.15719
447 21.45460 49.89210 52.79780 13.85381 17.70151 25.74181
448 30.51070 63.31950 67.97800 23.97251 30.06118 44.71382
449 57.89460 72.80700 85.26310 42.92215 46.39228 73.46202
450 13.44170 0.000000 20.69470 1.415375 0.714621 3.629509
451 21.90200 6.112400 26.68520 2.942775 1.756666 5.841748
452 75.25100 37.90990 42.93660 27.60156 20.59322 16.72558
453 74.79890 65.23700 86.25360 47.98488 43.59494 74.82252
454 90.61750 65.46410 90.34430 60.75317 50.55118 82.33376
455 43.91690 0.000000 65.50690 13.54118 6.180111 37.48742
456 54.10480 13.74220 72.91180 19.79652 10.14187 47.96281
457 71.46650 19.95550 81.16480 31.24613 16.68763 61.42704
458 93.86450 41.68530 88.05050 53.49845 34.01990 75.78724
459 14.24510 72.96840 36.38830 20.62651 35.92118 15.98986
460 42.49580 89.97650 36.08530 36.58356 59.85111 19.39275
461 20.64470 76.50740 14.45580 21.65814 39.56553 8.071316
462 21.42260 90.22470 21.18330 31.17546 57.47882 12.67093
463 52.70100 90.02870 87.00630 52.30700 66.95640 79.87873
464 53.06590 40.99700 56.48170 20.06802 17.25660 29.21412
465 66.46620 53.28500 64.26430 31.51675 28.65213 39.24002
466 79.91390 55.92000 65.32890 41.02836 35.32478 41.73655
467 87.73620 58.75810 78.34240 51.33216 41.75969 60.44118
468 90.58930 83.85920 80.37190 67.56242 69.13413 68.07757
469 42.54660 86.27980 8.815400 32.03312 53.89168 9.037490
470 51.57200 92.48820 23.57590 40.89509 65.43033 14.41580
471 64.21640 100.0000 26.71650 52.26856 79.67165 17.72600
472 68.04490 89.73660 16.90280 45.66436 64.90962 11.96923
473 22.80710 64.23460 12.75110 15.59817 27.45244 5.913901
474 23.99180 79.70060 31.06270 24.98572 43.71806 14.45928
475 29.15380 84.99240 63.17470 34.70282 53.32493 42.35574
476 45.73080 89.68870 70.92590 44.38171 63.05645 54.03066
477 23.32330 32.44530 16.15830 5.372459 7.314765 3.450058
478 25.41630 33.92100 29.56350 6.912876 8.378283 8.042980
479 74.44940 36.57400 32.17170 25.45374 19.04077 10.21602
480 79.26110 51.82520 44.28760 34.46072 29.95340 19.41782
481 68.61770 47.93590 35.77300 25.77358 23.54778 12.84337
482 72.27500 51.64680 50.39400 31.26617 28.11325 24.27553
483 76.41390 60.53430 76.58050 43.51329 38.65343 57.70370
484 86.97570 66.64690 77.19460 53.89208 48.20816 59.57543
485 1.938000 0.000000 0.000000 0.194392 0.159161 0.231952
486 10.74310 6.381200 0.000000 0.764919 0.745857 0.302691
487 10.72330 13.43610 5.610700 1.258781 1.571782 0.847797
488 11.56400 17.23270 32.23680 3.136790 2.853236 8.477125
489 14.14330 17.36590 49.79840 5.689374 3.868222 20.51949
490 17.97850 17.08820 61.43120 8.501161 4.997821 33.03486
491 30.36970 67.60770 62.35840 24.60545 33.60323 38.10898
492 41.43240 86.27650 89.31750 46.48555 59.64686 83.30977
493 52.60950 100.0000 89.81660 61.01134 82.31760 87.81334
494 11.85260 18.90020 8.163500 1.879128 2.553867 1.275545
495 20.56510 19.59350 11.25490 2.862532 3.196969 1.859362
496 39.84780 23.88410 19.64950 7.648305 6.457143 4.104789
497 49.42090 30.33960 30.75710 12.23692 10.16651 8.684649
498 63.53280 38.13840 44.01110 21.47379 17.28948 17.47875
499 67.16770 68.83290 54.74140 36.85654 41.62932 31.12681
500 79.75540 71.18270 55.09090 45.25674 47.59607 31.81356
501 68.43630 53.94670 18.31140 26.56647 27.28359 6.404552
502 84.87940 57.74700 28.62780 38.71176 35.65377 10.99953
503 100.0000 57.42810 41.80670 52.72174 42.79432 19.18931
504 13.78770 5.231700 9.378400 1.145790 0.883360 1.215552
505 15.05530 9.176800 31.20160 2.759169 1.786472 8.067349
506 14.95610 16.72760 39.36340 4.162631 3.221357 12.50236
507 12.26640 5.240200 36.38220 2.858194 1.530787 10.49725
508 12.98320 7.393900 50.62000 4.980457 2.456745 20.78160
509 15.83240 37.85920 64.25860 12.28414 11.76872 37.05058
510 25.53160 43.00580 100.0000 26.78389 19.45193 98.93991
511 27.13080 68.16600 100.0000 37.01184 39.00354 101.9719
512 35.62040 10.36790 71.63300 13.37269 6.419598 45.96361
513 37.51680 30.20760 86.00830 20.81027 12.97997 69.93893
514 31.32790 17.01140 100.0000 23.06096 10.68096 97.47454
515 16.67610 8.510900 65.23210 8.493832 3.964715 36.92242
516 16.61730 10.66730 87.89740 15.37377 6.720093 71.95179
517 39.33820 8.626300 90.46440 20.41251 9.069305 77.57893
518 70.01550 11.92470 90.73620 33.16106 16.14191 78.21776
519 19.84360 37.59340 42.09020 8.431798 10.19842 15.57915
520 19.53270 47.16640 56.72600 13.49493 16.05445 29.73443
521 39.75130 51.22980 68.13400 21.56322 22.12141 43.90229
522 0.000000 0.000000 0.000000 0.128035 0.123696 0.230185
523 29.54970 14.24000 14.37710 3.846246 3.020485 2.349707
524 73.21600 13.48120 13.91510 19.98824 11.51982 2.789875
525 76.97240 21.12120 25.54950 23.66908 14.48720 6.605411
526 81.87090 26.84330 42.89010 29.94185 18.60999 16.21648
527 87.58810 47.40120 41.92570 38.58740 30.12439 17.59767
528 51.41760 30.05810 0.000000 11.52548 9.931840 1.292522
529 65.77510 31.89190 0.000000 18.02024 13.84255 1.589038
530 73.04960 33.17610 74.05640 32.23843 20.61455 51.19334
531 72.69190 35.58180 87.17510 36.58010 22.93925 72.33998
532 72.75380 56.48570 88.58820 43.88175 35.83664 77.39478
533 8.801700 9.963500 17.79470 1.307979 1.197777 2.879132
534 50.20400 9.476300 22.62330 9.463899 5.459370 4.658105
535 71.26540 75.06210 21.50520 37.96657 47.02746 10.39005
536 84.96300 87.95180 22.84380 55.08510 67.88795 13.58011
537 0.000000 28.20400 65.21590 9.562322 7.458860 37.40477
538 12.32590 36.06640 71.84070 13.44536 11.37337 46.92570
539 0.000000 19.82330 46.97760 4.757085 3.797967 18.22268
540 14.57210 26.76920 50.80360 7.074158 6.209974 21.80260
541 19.03780 25.73480 62.45170 9.813173 7.223784 33.98715
542 81.88360 43.68580 64.28320 37.81875 27.37394 38.68218
543 27.94870 17.63440 8.502200 3.714444 3.418148 1.379997
544 27.72530 22.17520 18.07670 4.605236 4.541634 3.429055
545 30.32550 32.30700 61.75770 12.45719 10.14093 33.88573
546 14.09940 47.86670 75.76300 17.94411 18.13928 53.95524
547 16.74580 48.97050 88.62610 22.85621 20.74493 75.70284
548 15.96940 86.20310 90.75780 42.10089 57.16782 85.53507
549 60.53280 86.06960 90.35680 53.60255 63.03734 85.23780
550 43.85710 67.04630 59.64030 27.32474 34.85138 35.39349
551 57.96650 67.49420 73.82470 36.46364 39.56370 53.97700
552 18.71680 13.14690 21.52910 2.650949 2.229088 4.196306
553 29.72960 16.43670 27.73670 4.980427 3.776651 6.685299
554 29.40900 24.24280 32.96090 6.248487 5.652072 9.322560
555 45.86390 60.70670 32.85680 20.59045 27.79351 12.66400
556 71.02490 88.90220 34.33550 47.98438 65.12784 18.97707
557 89.28870 89.15240 43.27140 61.38837 72.17027 24.88511
558 30.93890 51.23650 14.14310 11.71109 17.88568 4.540447
559 62.90810 60.24380 18.17660 26.21044 30.70653 6.948495
560 83.28920 62.05630 41.91950 40.84565 39.04323 19.14292
561 57.34750 10.87990 13.69260 12.03699 7.063036 2.479229
562 64.85570 11.66550 24.08320 15.98266 9.172070 5.411049
563 88.85180 16.20150 23.91610 31.60836 17.95171 6.080340
564 88.82390 28.39400 22.10220 33.10238 20.99972 5.934442
565 88.39280 32.09760 38.07910 34.76503 22.66500 13.84597
566 88.07830 45.91270 49.73330 39.85648 29.91162 23.56939
567 93.87360 60.54320 63.43430 52.75853 44.17285 40.16590
568 92.72550 81.02820 88.23340 70.03729 67.62978 81.26880
569 27.75700 80.90800 75.09970 34.97388 48.94919 58.28229
570 37.00080 90.92510 80.89840 45.74706 64.58300 69.21469
571 55.94830 91.76450 51.15010 45.29134 66.44338 31.19477
572 84.87780 91.81190 53.93410 61.92905 75.25574 35.37818
573 18.19310 39.72390 12.22570 6.108286 9.821005 3.058755
574 38.50560 49.00300 22.43550 13.13380 17.50208 6.708434
575 54.39200 62.57730 48.85520 26.73373 31.85178 23.96768
576 58.26240 82.18020 52.16450 39.73798 53.72100 30.29597
577 59.69680 88.94890 66.16750 48.14753 64.38560 47.94569
578 45.38840 14.09310 8.467700 7.518573 5.006363 1.423107
579 57.01100 17.80190 9.171600 12.21122 7.946505 1.738253
580 71.07630 25.74320 15.01430 20.35193 13.74039 3.377629
581 83.66090 45.51980 75.13310 42.30250 30.16059 54.27968
582 88.55420 51.22970 90.69090 53.34206 38.15620 81.24888
583 88.96830 76.37100 92.83560 66.28030 61.39146 89.91101
584 92.62650 75.27590 16.89320 52.59038 55.25650 9.659569
585 100.0000 88.01060 24.04680 67.47847 74.59784 14.60326
586 0.000000 67.99810 22.68100 15.99323 29.89778 8.795336
587 17.47420 75.14160 59.24660 26.09802 40.25577 35.88805
588 39.26010 79.14080 68.27170 34.54828 47.56089 48.03597
589 84.52530 84.46020 91.27750 67.16882 68.76046 87.93134
590 28.74370 3.332700 34.66520 4.643867 2.408197 9.635294
591 28.18890 14.45210 39.11010 5.731546 3.799194 12.54307
592 49.64750 26.50930 47.67730 13.95098 9.969604 19.45071
593 5.738700 14.32480 10.12230 1.264376 1.714906 1.509426
594 9.250300 20.61520 14.02350 2.160235 3.014584 2.365098
595 33.53140 35.51230 43.37650 10.48171 10.55888 16.54381
596 46.05970 39.49370 46.32610 14.99145 14.19586 19.23082
597 56.90600 46.16820 47.66770 21.33156 20.15697 20.99394
598 67.77570 55.77180 48.95580 30.11379 29.74090 23.38554
599 76.37630 49.54910 11.38490 28.86936 26.13786 4.445123
600 90.08950 51.34930 13.43130 39.53974 32.85153 5.435355
601 100.0000 60.96200 16.18910 51.80945 44.77963 7.507999
602 25.15890 19.54090 0.000000 3.235008 3.411483 0.633557
603 49.74200 30.53070 12.12010 11.25022 9.903094 2.736070
604 67.18830 40.40490 11.77680 20.92267 18.10566 3.542072
605 78.86370 66.13440 64.74620 44.40109 43.32983 41.92947
606 83.17940 91.95510 100.0000 75.11004 80.20894 107.5813
607 100.0000 100.0000 100.0000 95.04092 99.82550 110.3010
608 13.31400 45.09440 43.76520 9.876000 13.55731 17.37342
609 17.23200 54.74630 46.04320 14.05207 20.67516 20.17902
610 43.49230 63.34390 46.44810 22.89302 30.44279 21.85785
611 55.43460 75.35120 63.82620 36.67080 45.81031 41.75939
612 58.21350 79.09750 74.98310 43.06353 51.88841 57.76798
613 36.24420 43.87590 36.49160 12.07064 14.41907 12.51457
614 42.06150 52.22640 51.98100 18.75173 21.54468 25.40150
615 41.94160 88.12310 53.61300 38.05592 58.60143 33.09857
616 15.11430 84.63220 55.52630 30.96015 51.11303 34.12621
617 15.27110 90.09620 76.16870 40.02351 60.85297 61.53993
618 24.37390 90.63620 87.57590 45.05951 63.41726 80.53507
619 53.57100 4.661900 35.22400 11.91498 6.341180 10.40144
620 64.48650 0.000000 41.16770 16.91769 8.666961 14.10370
621 81.86500 0.000000 49.76400 28.76071 14.76733 21.11974
622 81.82090 25.50850 53.60610 31.70399 19.07591 25.87689
623 87.87790 33.31800 64.75290 39.60631 24.94090 38.72396
624 94.47180 46.59040 74.81820 51.28534 35.52581 54.28744
625 46.31730 11.91910 38.78950 9.820444 5.677772 12.67709
626 59.46380 17.89120 49.48650 17.32038 10.18552 20.77774
627 62.87210 20.47470 68.91640 23.35440 13.09185 43.22820
628 86.13480 32.38610 74.51590 40.90066 24.96465 52.23390
629 59.93870 77.47320 25.62370 33.80618 46.74533 12.06536
630 70.47770 82.37830 50.37700 45.28881 56.76152 28.66724
631 87.00750 83.13320 52.79550 57.14775 63.78047 32.12364
632 31.72760 39.52570 10.43160 8.182762 10.96595 2.871993
633 34.15590 41.43250 24.32340 9.955332 12.59933 6.594951
634 33.91950 57.97980 57.92030 20.15592 25.28703 32.15258
635 46.95020 61.44740 63.92210 26.48223 30.52635 39.45851
636 41.28700 6.382600 11.26310 5.894205 3.446340 1.703699
637 40.73640 31.86920 10.94660 8.580219 8.822314 2.441563
638 47.61420 33.88400 25.40540 11.86495 11.07757 6.734274
639 48.34420 49.17280 40.00720 17.74519 19.74832 15.48719
640 58.40290 55.42180 49.52810 25.65935 27.07633 23.57389
641 63.27330 69.43260 61.66520 36.81103 41.70187 38.55337
642 78.01170 70.40680 81.13870 50.90680 49.36101 66.57012
643 46.65090 47.75710 54.69150 19.11688 19.55760 27.61742
644 58.37490 73.62750 55.61210 35.41064 44.13740 32.56600
645 81.23370 100.0000 58.98510 67.06838 86.88660 42.31468
646 0.000000 83.80370 28.53540 25.60719 47.90631 14.08017
647 19.30240 89.37510 44.94800 32.77847 57.15400 25.34534
648 23.83500 95.13280 66.50930 42.52599 68.36388 49.63844
649 0.000000 69.15590 47.98000 19.45256 32.31489 23.15187
650 13.69310 72.49770 64.74910 25.43139 37.49754 41.79161
651 30.91390 72.82790 75.59580 31.16481 40.49227 57.53848
652 49.43490 76.25910 91.66030 43.62978 48.96006 86.41872
653 53.48620 90.42700 100.0000 58.22214 69.72029 106.6184
654 7.303900 54.54180 70.43120 18.35984 21.97199 46.97363
655 12.60400 57.55430 90.88420 26.61071 27.11762 81.52722
656 16.93030 70.35450 95.13980 34.65005 39.55625 92.17276
657 0.000000 28.48100 30.17110 3.878305 5.344298 7.968228
658 16.18300 46.80610 31.16360 9.076442 14.02957 9.798101
659 33.08640 50.26160 31.00120 12.91868 17.82703 10.32342
660 35.36610 55.28900 49.52900 17.71829 22.82442 23.18392
661 11.52790 30.61940 21.77850 4.120427 6.020882 4.957420
662 45.99550 39.78300 24.46980 12.45417 13.18613 6.547616
663 55.20280 46.90290 37.08400 19.42579 19.72498 13.59118
664 62.66130 58.74330 44.81470 28.18933 30.42852 20.18169
665 33.61740 32.52640 14.27010 7.259801 8.332460 3.041168
666 39.86760 39.14910 29.65970 11.26409 12.31992 8.735750
667 48.46490 39.47180 36.95630 14.64915 14.20995 12.58162
668 69.10800 50.07690 55.69690 30.07016 26.52742 29.54691
669 88.39500 61.46870 57.09410 47.19583 41.86295 32.78752
670 38.30550 22.00320 8.835700 6.410005 5.460862 1.660861
671 43.23530 41.81330 12.23180 11.70478 13.73133 3.427469
672 55.21240 48.53270 11.95650 17.99863 19.97382 4.091098
673 62.51830 52.92950 30.29520 23.86525 25.09963 10.57229
674 58.83540 59.24550 35.92480 25.38456 29.29218 14.26578
675 73.05870 63.08340 34.46960 34.05599 36.35002 14.36175
676 80.00020 74.41990 37.09480 44.37956 50.00331 17.78811
677 88.24140 74.57510 49.51150 52.20678 53.97094 27.13961
678 49.69400 54.02230 21.45370 18.30163 22.81155 7.092520
679 52.78490 61.52500 75.83800 32.08429 33.05773 56.13455
680 52.67800 73.96330 79.08960 39.23985 45.65542 63.27645
681 8.271200 33.29160 50.90120 7.813268 8.353687 22.15730
682 28.50150 36.84070 56.25260 12.04379 11.49712 28.14012
683 40.79910 38.00640 60.03620 15.84760 13.82949 32.57592
684 45.68450 45.77230 60.48890 19.36850 18.60173 33.75721
685 63.98570 59.44740 67.47000 33.74756 33.26497 44.34317
686 20.95300 24.36230 29.91160 4.628861 4.830134 7.707687
687 26.92380 24.33020 48.21520 7.880182 6.231843 19.48075
688 36.54600 34.21730 49.28140 11.72399 10.70108 21.25697
689 66.19730 53.21810 100.0000 43.73525 33.42288 100.5653
690 82.40330 52.95610 100.0000 53.18355 38.26499 100.9422
691 0.000000 13.42510 13.30730 1.046299 1.417770 2.027173
692 0.000000 36.36090 17.47390 4.513273 7.881664 3.916379
693 54.23480 63.19310 17.21270 23.35678 30.75308 6.933225
694 89.16180 69.42590 33.92890 48.07381 48.42325 15.56017
695 40.25210 11.32160 44.17110 8.836278 5.007094 16.14571
696 43.83780 17.39830 59.56940 13.25650 7.605417 30.97104
697 67.28730 41.42930 71.66310 30.28149 22.34444 48.22749
698 70.20690 45.91690 87.78910 38.22411 27.54548 74.75712
699 20.37910 67.30960 48.23510 20.17958 31.61477 23.56896
700 45.09930 73.62930 47.84920 28.72841 40.76549 24.47194
701 70.39530 82.29850 76.73260 51.76073 59.32261 61.27971
702 82.17950 92.22600 76.56720 66.17014 77.13804 63.99856
703 82.37180 92.85350 88.40700 70.64758 79.87338 83.72008
704 32.39070 11.99100 59.61400 9.887939 5.189696 30.65199
705 34.70680 28.36160 68.29540 14.36165 9.935111 42.04775
706 46.22360 39.33410 77.14400 22.10799 16.82167 55.51934
707 48.31670 56.67170 80.12770 29.56294 28.84143 61.93198
708 62.10480 56.65730 80.23270 35.23989 31.59879 62.82645
709 81.18850 14.53910 32.88710 26.81424 15.13199 9.840398
710 90.09190 13.63710 58.73960 37.28351 19.97891 30.97648
711 33.69330 3.984200 21.66500 4.575110 2.568534 4.130922
712 46.33510 11.52720 28.11270 8.654962 5.176752 6.914401
713 92.26970 11.97530 33.80180 34.79305 19.04600 10.57208
714 100.0000 21.79470 42.87420 43.53352 24.88949 16.66410
715 100.0000 61.51170 76.66420 62.13570 49.23976 58.86171
716 72.39320 67.27910 61.12810 40.53139 42.21053 37.95504
717 71.30830 83.50100 64.16430 49.60929 59.77658 44.27107
718 86.35380 89.93570 68.04700 64.77571 74.11395 51.48467
719 92.47950 23.97080 6.298800 34.56563 20.89177 2.339643
720 91.61970 36.90980 9.236000 36.50297 25.28589 3.469327
721 92.32660 61.90380 46.20170 48.56002 43.13006 22.83343
722 0.000000 63.86130 33.75140 15.09549 26.60532 13.11305
723 9.994700 64.42650 71.39560 22.87951 30.19225 49.40751
724 11.17790 71.24360 82.59800 29.90658 38.24491 68.51942
725 19.20780 77.31770 92.78590 37.53291 46.22238 88.77585
726 70.82780 9.015800 35.26920 20.18699 11.00612 10.79852
727 71.40590 14.50640 43.77730 21.92520 12.32087 16.45340
728 89.07960 12.56400 76.52090 40.85058 21.04745 54.58873
729 8.521500 3.389500 12.75970 0.868315 0.639375 1.826783
730 12.37260 17.64340 25.82780 2.773527 2.789236 5.883548
731 12.24660 27.81910 35.36250 4.914463 5.661631 10.72069
732 74.30920 30.80200 62.03620 28.95083 18.60462 34.65565
733 21.55180 6.700600 19.21000 2.419346 1.570729 3.386145
734 34.59050 10.36870 30.41510 5.723302 3.454464 7.795419
735 40.12820 20.99170 37.04060 8.766676 6.395874 11.44034
736 46.01300 25.42630 74.48150 18.61959 11.35037 50.91598
737 53.68870 37.99250 87.60490 28.34193 19.36086 73.12081
738 56.60310 53.23890 90.62100 35.34442 29.53706 80.77433
739 18.52830 42.63420 59.63690 12.62602 13.65545 32.18229
740 19.82640 58.78850 69.39310 20.89091 25.73561 46.39318
741 19.07040 64.05790 83.00140 27.15821 31.69482 68.06641
742 31.75640 62.91230 86.70170 29.75134 32.05517 73.80753
743 49.80630 67.22550 89.52840 38.02969 39.34619 80.07313
744 63.16180 66.62630 90.39030 43.98113 42.21570 81.84523
745 73.36740 75.48770 90.98610 53.96625 53.89747 85.13365
746 20.97210 7.898100 6.760600 1.857870 1.394631 0.896583
747 23.41830 25.18060 7.006500 3.831151 4.749561 1.448598
748 56.54030 41.46860 12.50930 16.44404 16.14668 3.647587
749 55.13790 74.56940 9.335200 29.31100 42.09892 7.118946
750 55.34720 88.35670 77.52670 48.78160 63.50715 63.65047
751 70.12730 90.29920 86.73670 60.36673 71.30183 79.60849
752 12.80780 57.52960 37.87220 13.60922 21.99793 14.98327
753 31.26350 63.45340 51.54650 20.65961 29.10465 25.82933
754 86.09770 7.682500 11.85030 28.23011 15.40499 2.551290
755 89.68290 15.96390 46.84210 34.91332 19.33287 19.39744
756 89.91800 38.39600 54.95240 40.19773 27.18518 28.30313
757 0.000000 0.000000 0.000000 0.127988 0.123580 0.230186
758 18.76990 12.94190 9.855300 2.078203 1.959538 1.437563
759 80.25840 19.31710 9.230600 25.16557 15.02706 2.279890
760 79.01760 33.56650 12.21340 26.25354 18.84398 3.423151
761 85.99760 39.09650 30.19680 33.55148 24.26446 9.812288
762 70.57180 83.03490 0.000000 41.51589 55.87326 7.967005
763 87.84600 85.47390 0.000000 54.40032 65.10526 8.851770
764 11.11470 28.38190 10.56850 3.179125 5.057442 2.090076
765 20.56680 34.29110 46.05400 8.267740 8.917851 18.31001
766 25.29920 53.49230 71.81530 20.13020 22.23835 48.76594
767 28.38460 77.50910 85.88720 36.56507 46.45159 75.48515
768 40.65600 77.30330 88.60130 40.02378 47.86451 80.02077
769 0.000000 69.52210 67.15610 23.79503 34.38581 44.29423
770 16.28900 74.05610 74.28550 29.14400 40.39309 55.14783
771 51.25410 7.628000 58.57660 14.81024 7.451201 29.45976
772 73.97830 12.39390 71.03550 28.88960 14.93418 45.70438
773 73.80590 80.13080 69.88330 50.01840 56.55736 51.36037
774 86.99490 88.66090 79.57510 67.80904 74.04720 67.77137
775 88.68680 100.0000 100.0000 85.56257 94.73202 109.9754
776 0.000000 18.53530 83.37120 13.59968 6.878493 64.61195
777 12.77190 28.23670 88.13510 17.25891 10.53876 73.47206
778 59.63850 27.65580 87.27430 28.74091 16.60859 72.57348
779 77.48000 27.10130 100.0000 43.11661 23.24093 98.69879
780 29.25660 30.34330 21.46530 6.234671 7.044692 4.893052
781 37.87360 31.11820 27.20120 8.726891 8.561420 6.991566
782 70.58510 49.40440 26.71600 26.48435 24.79047 8.749638
783 100.0000 52.39930 52.17670 52.55563 39.93542 27.06343
784 25.41260 0.000000 12.45500 2.418540 1.301986 1.766530
785 31.51770 6.934900 12.62980 3.734290 2.339635 1.888483
786 34.33860 20.36860 51.93770 9.489036 6.285503 22.59189
787 88.36440 18.63430 67.60560 38.29447 20.84118 41.75498
788 100.0000 25.54890 69.54530 49.67764 28.13930 45.38834
789 71.98810 38.48330 21.37970 23.89678 19.03241 6.015091
790 83.21360 47.05010 20.59490 33.04501 27.21272 6.646859
791 91.80690 47.84490 28.90260 40.69528 31.65236 10.15129
792 58.91880 16.39160 33.19800 14.56483 8.815329 9.647570
793 67.63040 28.31940 42.86960 21.19841 14.35399 15.94870
794 76.26690 40.03610 53.74620 30.44267 22.44661 26.66778
795 80.60990 50.47100 55.20400 37.42156 30.67861 29.50423
796 89.06570 51.99810 64.51020 45.80464 35.68377 40.45959
797 35.45130 24.39480 25.95810 6.843099 6.046719 6.278490
798 39.65970 29.52750 35.75370 9.758618 8.669912 11.07839
799 14.87250 51.25600 13.44280 9.427698 16.63412 4.359470
800 21.18950 51.91390 26.69130 11.03025 17.61867 8.369588
801 16.02940 42.10160 34.13180 8.077174 11.58246 10.99303
802 29.25350 44.16720 41.72720 11.46480 14.17460 15.92956
803 33.37980 44.21860 55.32230 14.68804 15.56983 27.89313
804 55.51110 48.11850 57.10900 23.34897 21.97407 30.39816
805 91.43140 71.75030 56.81370 54.79306 52.99154 34.50824
806 92.66780 75.75620 75.32490 62.56288 59.68603 58.86572
807 44.96290 23.83140 31.44860 10.00586 7.604972 8.796010
808 44.65380 28.98950 54.08940 13.99611 10.41546 25.72720
809 60.53820 31.51570 59.05320 21.39953 14.76111 31.46172
810 47.49940 0.000000 83.35470 19.89180 8.732135 64.65686
811 88.55890 18.24350 88.78270 45.07845 23.37744 75.07723
812 87.95610 15.10870 100.0000 48.83549 24.18135 98.57213
813 0.000000 11.55860 21.17780 1.289855 1.321876 3.888562
814 8.748600 18.22330 20.76780 2.152291 2.569413 3.976057
815 13.00270 26.32250 24.59430 3.739614 4.771351 5.655495
816 25.53630 32.58670 36.02820 7.313148 8.161195 11.32724
817 27.40870 76.71570 47.33480 26.17747 41.95700 24.53097
818 49.50710 100.0000 67.59060 52.73206 78.92171 52.29963
819 73.25900 100.0000 90.34360 71.04320 87.61295 89.23382
820 15.42980 41.17570 88.87650 20.51188 16.10449 75.82571
821 36.17720 42.19450 88.39170 23.97619 18.55674 74.65899
822 44.59510 54.53320 89.96110 31.11018 27.97865 79.16299
823 50.13710 66.87700 100.0000 42.59907 41.15829 102.1976
824 84.77520 0.000000 18.99960 27.05514 14.36060 4.028021
825 100.0000 49.08950 19.77090 47.44032 35.99169 7.144603
END_DATA
CAL    

DESCRIPTOR "Argyll Device Calibration State"
ORIGINATOR "Argyll dispread"
CREATED "Tue May 26 15:31:53 2020"
DEVICE_CLASS "DISPLAY"
COLOR_REP "RGB"

BEGIN_ARGYLL_DISPCAL_ARGS
-v2 -qm -m -w0.3127,0.329 -gs -f1.0 -k0 -A4.0 -d1 -c1 -yn -P0.501639344262,0.176923076923,1.49553571429 -F
END_ARGYLL_DISPCAL_ARGS


NUMBER_OF_FIELDS 4
BEGIN_DATA_FORMAT
RGB_I RGB_R RGB_G RGB_B
END_DATA_FORMAT

NUMBER_OF_SETS 256
BEGIN_DATA
0.00000000 0.00000000 0.00000000 0.00000000
0.00392157 0.01828200 0.01862460 0.01849480
0.00784314 0.03273250 0.03327680 0.03288020
0.01176470 0.04435790 0.04495030 0.04432560
0.01568630 0.05376590 0.05424810 0.05357040
0.01960780 0.06158180 0.06190500 0.06118840
0.02352940 0.06826520 0.06842670 0.06763740
0.02745100 0.07415220 0.07415620 0.07326130
0.03137250 0.07946200 0.07931920 0.07827910
0.03529410 0.08433840 0.08407340 0.08285270
0.03921570 0.08890260 0.08853930 0.08710630
0.04313730 0.09323400 0.09279110 0.09112220
0.04705880 0.09737960 0.09686290 0.09494460
0.05098040 0.10138700 0.10080700 0.09863320
0.05490200 0.10526500 0.10462500 0.10220800
0.05882350 0.10902700 0.10833400 0.10568700
0.06274510 0.11270100 0.11196000 0.10910900
0.06666670 0.11628500 0.11549600 0.11247800
0.07058820 0.11978500 0.11894800 0.11580600
0.07450980 0.12324700 0.12235500 0.11913200
0.07843140 0.12667400 0.12571700 0.12245900
0.08235290 0.13005300 0.12902000 0.12577700
0.08627450 0.13338200 0.13226300 0.12908000
0.09019610 0.13668500 0.13547900 0.13239500
0.09411760 0.13999000 0.13869500 0.13573900
0.09803920 0.14329900 0.14191500 0.13912000
0.10196100 0.14661000 0.14514100 0.14253300
0.10588200 0.14991700 0.14836700 0.14596400
0.10980400 0.15322100 0.15159700 0.14940700
0.11372500 0.15653100 0.15484800 0.15287500
0.11764700 0.15986100 0.15813600 0.15637400
0.12156900 0.16321900 0.16146500 0.15990300
0.12549000 0.16660700 0.16484200 0.16346400
0.12941200 0.17002400 0.16826500 0.16704400
0.13333300 0.17344500 0.17170600 0.17060700
0.13725500 0.17686300 0.17515700 0.17414700
0.14117600 0.18027900 0.17862100 0.17767300
0.14509800 0.18369200 0.18209300 0.18118000
0.14902000 0.18708600 0.18556000 0.18465500
0.15294100 0.19048500 0.18904100 0.18812700
0.15686300 0.19390300 0.19254400 0.19160100
0.16078400 0.19733900 0.19606500 0.19507600
0.16470600 0.20079400 0.19960200 0.19856000
0.16862700 0.20427100 0.20315600 0.20204100
0.17254900 0.20774300 0.20669400 0.20549800
0.17647100 0.21120900 0.21021700 0.20893100
0.18039200 0.21466700 0.21372100 0.21235300
0.18431400 0.21813300 0.21722600 0.21577600
0.18823500 0.22161600 0.22073800 0.21919800
0.19215700 0.22511300 0.22425100 0.22261100
0.19607800 0.22860200 0.22773800 0.22598700
0.20000000 0.23206700 0.23119700 0.22934700
0.20392200 0.23552400 0.23464100 0.23269400
0.20784300 0.23899500 0.23809000 0.23604800
0.21176500 0.24248800 0.24155600 0.23941300
0.21568600 0.24600600 0.24503600 0.24278800
0.21960800 0.24954900 0.24853700 0.24619300
0.22352900 0.25313900 0.25208100 0.24963200
0.22745100 0.25675100 0.25563500 0.25306300
0.23137300 0.26035000 0.25917300 0.25647800
0.23529400 0.26393500 0.26269000 0.25988000
0.23921600 0.26750700 0.26619100 0.26326700
0.24313700 0.27106400 0.26967700 0.26664400
0.24705900 0.27462800 0.27317300 0.27003900
0.25098000 0.27822200 0.27669100 0.27345800
0.25490200 0.28185600 0.28024000 0.27689800
0.25882400 0.28552900 0.28381400 0.28035800
0.26274500 0.28923000 0.28740800 0.28382700
0.26666700 0.29292900 0.29098700 0.28727100
0.27058800 0.29659100 0.29452400 0.29067600
0.27451000 0.30023300 0.29804700 0.29407000
0.27843100 0.30387600 0.30157100 0.29746900
0.28235300 0.30751700 0.30509100 0.30087200
0.28627500 0.31114700 0.30860100 0.30426700
0.29019600 0.31475000 0.31209100 0.30763600
0.29411800 0.31834000 0.31557100 0.31098900
0.29803900 0.32193100 0.31905700 0.31434300
0.30196100 0.32553500 0.32255900 0.31771000
0.30588200 0.32915000 0.32607700 0.32109100
0.30980400 0.33278700 0.32962100 0.32449500
0.31372500 0.33647700 0.33322500 0.32795800
0.31764700 0.34019700 0.33686500 0.33146800
0.32156900 0.34391300 0.34050800 0.33498600
0.32549000 0.34762200 0.34414700 0.33850500
0.32941200 0.35132500 0.34778100 0.34202900
0.33333300 0.35502600 0.35141200 0.34555700
0.33725500 0.35872400 0.35503500 0.34908100
0.34117600 0.36243700 0.35866900 0.35261300
0.34509800 0.36615500 0.36230900 0.35615800
0.34902000 0.36984000 0.36592200 0.35969500
0.35294100 0.37348600 0.36949100 0.36319000
0.35686300 0.37713500 0.37305500 0.36665700
0.36078400 0.38078600 0.37662000 0.37012500
0.36470600 0.38443100 0.38017600 0.37358400
0.36862700 0.38808400 0.38372700 0.37703800
0.37254900 0.39175700 0.38729600 0.38051200
0.37647100 0.39545800 0.39089200 0.38401100
0.38039200 0.39918500 0.39451200 0.38753600
0.38431400 0.40293400 0.39815700 0.39108600
0.38823500 0.40666000 0.40180300 0.39465400
0.39215700 0.41031800 0.40539200 0.39818200
0.39607800 0.41390900 0.40891600 0.40164700
0.40000000 0.41745000 0.41238600 0.40506100
0.40392200 0.42097400 0.41583800 0.40844500
0.40784300 0.42448800 0.41929100 0.41183600
0.41176500 0.42802400 0.42275400 0.41523600
0.41568600 0.43159800 0.42626100 0.41867800
0.41960800 0.43520100 0.42981200 0.42216400
0.42352900 0.43882900 0.43339700 0.42568300
0.42745100 0.44249400 0.43702300 0.42923200
0.43137300 0.44618900 0.44069100 0.43282300
0.43529400 0.44987400 0.44438100 0.43645100
0.43921600 0.45353600 0.44805000 0.44007500
0.44313700 0.45720700 0.45171300 0.44368000
0.44705900 0.46090200 0.45539800 0.44729800
0.45098000 0.46461100 0.45910100 0.45093900
0.45490200 0.46831600 0.46280300 0.45458900
0.45882400 0.47203300 0.46650900 0.45823000
0.46274500 0.47575800 0.47022200 0.46187700
0.46666700 0.47949300 0.47394100 0.46552100
0.47058800 0.48324100 0.47766800 0.46916400
0.47451000 0.48701500 0.48141200 0.47281300
0.47843100 0.49082100 0.48518100 0.47648000
0.48235300 0.49467400 0.48899000 0.48017700
0.48627500 0.49860300 0.49285000 0.48391500
0.49019600 0.50264500 0.49681100 0.48771000
0.49411800 0.50671700 0.50084700 0.49161700
0.49803900 0.51077900 0.50487000 0.49555000
0.50196100 0.51483000 0.50887600 0.49946500
0.50588200 0.51886900 0.51286300 0.50336100
0.50980400 0.52288600 0.51682800 0.50723700
0.51372500 0.52687100 0.52075900 0.51108200
0.51764700 0.53082600 0.52465400 0.51488600
0.52156900 0.53475500 0.52851600 0.51864800
0.52549000 0.53865200 0.53235100 0.52237700
0.52941200 0.54253200 0.53616100 0.52607000
0.53333300 0.54640100 0.53996600 0.52974300
0.53725500 0.55022700 0.54375500 0.53341600
0.54117600 0.55399900 0.54749300 0.53706700
0.54509800 0.55773800 0.55119100 0.54066300
0.54902000 0.56146600 0.55488100 0.54422300
0.55294100 0.56519900 0.55857500 0.54779000
0.55686300 0.56895100 0.56229400 0.55137400
0.56078400 0.57271300 0.56603500 0.55499100
0.56470600 0.57645800 0.56978700 0.55863800
0.56862700 0.58014300 0.57349400 0.56229600
0.57254900 0.58377200 0.57714300 0.56591800
0.57647100 0.58737800 0.58076000 0.56949800
0.58039200 0.59096200 0.58437000 0.57306700
0.58431400 0.59451800 0.58796200 0.57663900
0.58823500 0.59804700 0.59153900 0.58020300
0.59215700 0.60156800 0.59511400 0.58375800
0.59607800 0.60508400 0.59869700 0.58732100
0.60000000 0.60858700 0.60227100 0.59089400
0.60392200 0.61207400 0.60583100 0.59446400
0.60784300 0.61555000 0.60937800 0.59803000
0.61176500 0.61900200 0.61291100 0.60159000
0.61568600 0.62242600 0.61642000 0.60512700
0.61960800 0.62584000 0.61992300 0.60862700
0.62352900 0.62927100 0.62345000 0.61210800
0.62745100 0.63272000 0.62699700 0.61560100
0.63137300 0.63618100 0.63055500 0.61910500
0.63529400 0.63968200 0.63414200 0.62262200
0.63921600 0.64324000 0.63777900 0.62618400
0.64313700 0.64688100 0.64149000 0.62980700
0.64705900 0.65061800 0.64529300 0.63351400
0.65098000 0.65446400 0.64920400 0.63732200
0.65490200 0.65842300 0.65321900 0.64123400
0.65882400 0.66249600 0.65733800 0.64524900
0.66274500 0.66668700 0.66156200 0.64936800
0.66666700 0.67089300 0.66578800 0.65358100
0.67058800 0.67501000 0.66991300 0.65774200
0.67451000 0.67903600 0.67392900 0.66179000
0.67843100 0.68296600 0.67782700 0.66572100
0.68235300 0.68679500 0.68161100 0.66953700
0.68627500 0.69054100 0.68530400 0.67324500
0.69019600 0.69423100 0.68893700 0.67686700
0.69411800 0.69788400 0.69253000 0.68044100
0.69803900 0.70151000 0.69609400 0.68397800
0.70196100 0.70512700 0.69964700 0.68751200
0.70588200 0.70873400 0.70317800 0.69105400
0.70980400 0.71232600 0.70668400 0.69459800
0.71372500 0.71594300 0.71020200 0.69815800
0.71764700 0.71958500 0.71373900 0.70175300
0.72156900 0.72325700 0.71730400 0.70537500
0.72549000 0.72697000 0.72090400 0.70902900
0.72941200 0.73069800 0.72451700 0.71270500
0.73333300 0.73442100 0.72811500 0.71636000
0.73725500 0.73815600 0.73171400 0.71999500
0.74117600 0.74190500 0.73531300 0.72362300
0.74509800 0.74567100 0.73891600 0.72723900
0.74902000 0.74948500 0.74254600 0.73084400
0.75294100 0.75335000 0.74622600 0.73447200
0.75686300 0.75723200 0.74992400 0.73811600
0.76078400 0.76113200 0.75363800 0.74175800
0.76470600 0.76504400 0.75736500 0.74540000
0.76862700 0.76896800 0.76110400 0.74904300
0.77254900 0.77288400 0.76484700 0.75269500
0.77647100 0.77677700 0.76857900 0.75633000
0.78039200 0.78066700 0.77230800 0.75994100
0.78431400 0.78457000 0.77606300 0.76356900
0.78823500 0.78849500 0.77984300 0.76723300
0.79215700 0.79246300 0.78367200 0.77094400
0.79607800 0.79647000 0.78755900 0.77472000
0.80000000 0.80051200 0.79149600 0.77855900
0.80392200 0.80453500 0.79546700 0.78245500
0.80784300 0.80848400 0.79939600 0.78635600
0.81176500 0.81236400 0.80327100 0.79021100
0.81568600 0.81619200 0.80709600 0.79401800
0.81960800 0.81999500 0.81089200 0.79778500
0.82352900 0.82380400 0.81469600 0.80153000
0.82745100 0.82761300 0.81851100 0.80528500
0.83137300 0.83142600 0.82232900 0.80904400
0.83529400 0.83525400 0.82616100 0.81280700
0.83921600 0.83910100 0.83001800 0.81658100
0.84313700 0.84296100 0.83389000 0.82035400
0.84705900 0.84682800 0.83776600 0.82412100
0.85098000 0.85072500 0.84165600 0.82787800
0.85490200 0.85466000 0.84558500 0.83165700
0.85882400 0.85862700 0.84955300 0.83546800
0.86274500 0.86256200 0.85352700 0.83931100
0.86666700 0.86644300 0.85745200 0.84313200
0.87058800 0.87028700 0.86133300 0.84690800
0.87451000 0.87410000 0.86518900 0.85065100
0.87843100 0.87791200 0.86902700 0.85437200
0.88235300 0.88174200 0.87288000 0.85809600
0.88627500 0.88560200 0.87676100 0.86184800
0.89019600 0.88949400 0.88067900 0.86563800
0.89411800 0.89337800 0.88460600 0.86947400
0.89803900 0.89723700 0.88849900 0.87331200
0.90196100 0.90108100 0.89236300 0.87713300
0.90588200 0.90493400 0.89622200 0.88094800
0.90980400 0.90880600 0.90009200 0.88479600
0.91372500 0.91266900 0.90396200 0.88868400
0.91764700 0.91650300 0.90779500 0.89257300
0.92156900 0.92033800 0.91161100 0.89644100
0.92549000 0.92418200 0.91544000 0.90032800
0.92941200 0.92801200 0.91926300 0.90423800
0.93333300 0.93183800 0.92307800 0.90814400
0.93725500 0.93566600 0.92689900 0.91206500
0.94117600 0.93949500 0.93072500 0.91599800
0.94509800 0.94333800 0.93457300 0.91994800
0.94902000 0.94719700 0.93844000 0.92391800
0.95294100 0.95107500 0.94233200 0.92790100
0.95686300 0.95497500 0.94624900 0.93189600
0.96078400 0.95889200 0.95019300 0.93590600
0.96470600 0.96282800 0.95416200 0.93993600
0.96862700 0.96678500 0.95815700 0.94398700
0.97254900 0.97076100 0.96217200 0.94805600
0.97647100 0.97475300 0.96620300 0.95213900
0.98039200 0.97876200 0.97025000 0.95623800
0.98431400 0.98278700 0.97431400 0.96035300
0.98823500 0.98682900 0.97839300 0.96448400
0.99215700 0.99088800 0.98249000 0.96863000
0.99607800 0.99496400 0.98660300 0.97279200
1.00000000 0.99905700 0.99073200 0.97696900
END_DATA
