CTI3   

DESCRIPTOR "Argyll Calibration Target chart information 3"
ORIGINATOR "Argyll dispread"
CREATED "Tue May 26 15:31:53 2020"
DEVICE_CLASS "DISPLAY"
SINGLE_DIM_STEPS "25"
COMP_GREY_STEPS "73"
DARK_REGION_EMPHASIS "1.6"
COLOR_REP "RGB_XYZ"
TARGET_INSTRUMENT "X-Rite i1 DisplayPro, ColorMunki Display"
DISPLAY_TYPE_REFRESH "NO"
DISPLAY_TYPE_BASE_ID "1"
INSTRUMENT_TYPE_SPECTRAL "NO"
LUMINANCE_XYZ_CDM2 "328.960389 345.554802 380.011882"
NORMALIZED_TO_Y_100 "YES"
VIDEO_LUT_CALIBRATION_POSSIBLE "YES"

BEGIN_ARGYLL_COLPROF_ARGS
-v -qh -aS -C "No copyright. Created with DisplayCAL 3.8.9.3 and ArgyllCMS 2.1.2" -M "MacBookPro11,1" -A "Apple Computer Inc"
END_ARGYLL_COLPROF_ARGS

OBSERVER "1931_2"
USE_BLACK_POINT_COMPENSATION "YES"
BLACK_POINT_CORRECTION "0.0"
HIRES_B2A "YES"
HIRES_B2A_SIZE "-1"
SMOOTH_B2A "YES"
PATCH_SEQUENCE "OPTIMIZE_DISPLAY_RESPONSE_DELAY"

NUMBER_OF_FIELDS 7
BEGIN_DATA_FORMAT
SAMPLE_ID RGB_R RGB_G RGB_B XYZ_X XYZ_Y XYZ_Z
END_DATA_FORMAT

NUMBER_OF_SETS 825
BEGIN_DATA
1 100.0000 100.0000 100.0000 95.19775 100.0000 109.9715
2 1.960800 1.960800 1.960800 0.282607 0.294402 0.348615
3 3.921600 3.921600 3.921600 0.446693 0.467423 0.549538
4 5.882400 5.882400 5.882400 0.612490 0.633451 0.735604
5 9.803900 9.803900 9.803900 1.101281 1.129963 1.339281
6 13.72600 13.72600 13.72600 1.786207 1.871754 2.174181
7 17.64700 17.64700 17.64700 2.656610 2.807523 3.106312
8 21.56900 21.56900 21.56900 3.789519 3.985658 4.455159
9 25.49000 25.49000 25.49000 5.175392 5.448006 6.063284
10 29.41200 29.41200 29.41200 6.757745 7.155609 7.793747
11 33.33300 33.33300 33.33300 8.750337 9.216485 10.04532
12 37.25500 37.25500 37.25500 10.88070 11.46139 12.48041
13 41.17600 41.17600 41.17600 13.31260 13.99887 15.45509
14 45.09800 45.09800 45.09800 16.15433 16.93785 18.54022
15 49.02000 49.02000 49.02000 19.32072 20.39915 22.12404
16 52.94100 52.94100 52.94100 23.01662 24.19843 26.31029
17 56.86300 56.86300 56.86300 26.90799 28.26336 31.10284
18 60.78400 60.78400 60.78400 31.13505 32.81051 36.00834
19 64.70600 64.70600 64.70600 35.65612 37.58817 41.02320
20 68.62700 68.62700 68.62700 40.76151 42.95036 47.02868
21 72.54900 72.54900 72.54900 45.88030 48.22090 52.86745
22 76.47100 76.47100 76.47100 51.53086 54.27978 59.86605
23 80.39200 80.39200 80.39200 57.85046 60.64503 66.63961
24 84.31400 84.31400 84.31400 64.28953 67.59581 74.46593
25 88.23500 88.23500 88.23500 71.37762 75.10944 82.18180
26 92.15700 92.15700 92.15700 79.15560 83.34237 91.32884
27 96.07800 96.07800 96.07800 87.22363 91.83259 100.2008
28 31.28150 40.89400 76.08020 18.46283 15.53119 53.79345
29 40.12970 62.94790 78.37870 29.17805 32.44832 59.57856
30 38.68330 67.68800 76.80270 30.68839 36.62525 57.75574
31 67.01110 68.04710 78.02530 42.24113 43.04817 60.32685
32 71.16160 81.32250 91.13330 56.23125 60.02008 85.69685
33 100.0000 29.62290 0.000000 41.93139 26.10124 2.310931
34 100.0000 38.60590 23.97240 44.83939 30.26615 7.604423
35 82.37940 24.24020 0.000000 26.64363 16.73132 1.544905
36 84.96900 100.0000 0.000000 63.63212 85.86850 12.26653
37 100.0000 100.0000 0.000000 75.97580 92.52734 12.73961
38 100.0000 100.0000 23.35290 77.01567 93.01014 17.46159
39 100.0000 100.0000 41.01620 78.88791 93.76590 26.96020
40 13.15790 0.000000 0.000000 0.748942 0.455405 0.221685
41 15.76580 0.000000 0.000000 0.973688 0.574598 0.238837
42 18.51850 0.000000 0.000000 1.222957 0.706403 0.253439
43 21.42860 0.000000 0.000000 1.578580 0.895044 0.270103
44 24.50980 0.000000 0.000000 1.905305 1.068715 0.282716
45 27.77780 0.000000 0.000000 2.525402 1.398254 0.304125
46 31.25000 0.000000 0.000000 3.152412 1.731273 0.324922
47 34.94620 0.000000 0.000000 3.829609 2.090957 0.346322
48 38.88890 0.000000 0.000000 4.845115 2.631931 0.378366
49 43.10350 0.000000 0.000000 5.984988 3.235795 0.410258
50 47.61910 0.000000 0.000000 7.236183 3.903422 0.454911
51 52.46910 0.000000 0.000000 9.196853 4.942996 0.516104
52 57.69230 0.000000 0.000000 11.24526 6.033746 0.582601
53 63.33330 0.000000 0.000000 13.79758 7.388630 0.663826
54 69.44440 0.000000 0.000000 16.84859 9.011746 0.762393
55 76.08700 0.000000 0.000000 20.56226 10.98434 0.881543
56 83.33330 0.000000 0.000000 25.61907 13.67226 1.047394
57 82.52630 51.11080 33.97810 35.05149 30.04531 12.81059
58 100.0000 76.66610 68.42610 67.56150 63.28627 49.00520
59 100.0000 89.97880 82.01410 80.35237 81.93473 72.33182
60 0.000000 0.000000 18.51850 0.647376 0.328070 2.843459
61 0.000000 0.000000 21.42860 0.829160 0.397567 3.781396
62 46.98710 28.76060 64.06380 16.60604 11.40467 36.09836
63 59.59400 31.87750 71.25760 24.25287 15.99336 46.45302
64 59.77500 45.91760 79.26620 30.05762 23.61113 59.25163
65 0.000000 15.76580 0.000000 0.902556 1.629933 0.455853
66 0.000000 18.51850 0.000000 1.136829 2.087133 0.525987
67 0.000000 21.42860 0.000000 1.512177 2.817956 0.636958
68 0.000000 24.50980 0.000000 1.840616 3.457937 0.733323
69 0.000000 27.77780 0.000000 2.363025 4.491186 0.890389
70 0.000000 31.25000 0.000000 2.932468 5.603069 1.059101
71 0.000000 34.94620 0.000000 3.597309 6.876321 1.254580
72 0.000000 38.88890 0.000000 4.542881 8.722235 1.533604
73 0.000000 43.10350 0.000000 5.538121 10.67641 1.831792
74 0.000000 47.61910 0.000000 6.867290 13.22290 2.220330
75 0.000000 52.46910 0.000000 8.560490 16.57043 2.734144
76 0.000000 57.69230 0.000000 10.51128 20.39217 3.315419
77 0.000000 63.33330 0.000000 12.99476 25.23927 4.064063
78 0.000000 69.44440 0.000000 15.97878 31.04673 4.957611
79 0.000000 76.08700 0.000000 19.45865 37.84805 6.009939
80 28.71160 80.94680 0.000000 24.92552 44.77410 6.954832
81 39.06740 100.0000 23.28940 42.59846 74.57413 15.97326
82 59.58600 100.0000 45.68350 52.53346 79.52881 28.93895
83 0.000000 0.000000 1.938000 0.145905 0.134895 0.285823
84 0.000000 0.000000 3.968300 0.176261 0.146570 0.443104
85 0.000000 0.000000 6.097600 0.213217 0.160887 0.635705
86 0.000000 0.000000 8.333300 0.252899 0.176443 0.842982
87 0.000000 0.000000 10.68380 0.335703 0.208350 1.255044
88 0.000000 0.000000 13.15790 0.429684 0.244685 1.732006
89 0.000000 18.11530 68.39880 8.986757 5.134724 40.83930
90 21.55770 29.73280 76.72520 14.50054 9.970209 53.65061
91 96.99450 96.99450 96.99450 88.74410 93.37751 102.0393
92 100.0000 100.0000 100.0000 95.18355 99.99057 110.0266
93 0.000000 0.000000 24.50980 0.995565 0.461269 4.645108
94 0.000000 0.000000 27.77780 1.268531 0.566049 6.064684
95 0.000000 0.000000 31.25000 1.584091 0.686939 7.700441
96 0.000000 0.000000 34.94620 1.916593 0.814445 9.426056
97 0.000000 0.000000 38.88890 2.386422 0.994517 11.86864
98 0.000000 0.000000 43.10350 2.876711 1.181163 14.40167
99 0.000000 0.000000 47.61910 3.494873 1.419777 17.59112
100 0.000000 0.000000 57.69230 5.397952 2.146108 27.42347
101 0.000000 0.000000 63.33330 6.697112 2.638397 34.12227
102 0.000000 0.000000 69.44440 8.229002 3.222377 42.02855
103 0.000000 0.000000 76.08700 10.07855 3.922450 51.58167
104 0.000000 0.000000 83.33330 12.43650 4.795672 63.71474
105 0.000000 33.84300 100.0000 22.29388 13.87629 97.75994
106 0.000000 46.00370 100.0000 25.30435 19.72726 98.69217
107 100.0000 44.94920 68.94200 53.94835 36.51533 45.90371
108 100.0000 44.12250 83.14970 57.95649 37.71323 67.31150
109 1.938000 1.938000 1.938000 0.282507 0.294297 0.348913
110 2.604200 2.604200 2.604200 0.361575 0.369768 0.431679
111 3.280800 3.280800 3.280800 0.393399 0.403944 0.472166
112 3.968300 3.968300 3.968300 0.446404 0.467242 0.549785
113 4.666700 4.666700 4.666700 0.519808 0.543812 0.645676
114 5.376300 5.376300 5.376300 0.572536 0.591134 0.690114
115 6.097600 6.097600 6.097600 0.636368 0.667103 0.781564
116 6.830600 6.830600 6.830600 0.680878 0.713622 0.834246
117 7.575800 7.575800 7.575800 0.763661 0.779861 0.945261
118 8.333300 8.333300 8.333300 0.842931 0.884065 1.021882
119 9.103600 9.103600 9.103600 0.981755 1.030709 1.180289
120 9.887000 9.887000 9.887000 1.100381 1.129240 1.338468
121 10.68380 10.68380 10.68380 1.215227 1.270088 1.502491
122 11.49420 11.49420 11.49420 1.357490 1.428654 1.619375
123 12.31880 12.31880 12.31880 1.492620 1.541814 1.798433
124 13.15790 13.15790 13.15790 1.696339 1.776739 2.069559
125 14.01180 14.01180 14.01180 1.862957 1.964170 2.187113
126 14.88100 14.88100 14.88100 2.053850 2.166506 2.404959
127 15.76580 15.76580 15.76580 2.206060 2.295421 2.607921
128 16.66670 16.66670 16.66670 2.462174 2.584077 2.975416
129 17.58410 17.58410 17.58410 2.654289 2.805787 3.107160
130 18.51850 18.51850 18.51850 2.835775 2.955688 3.362937
131 19.47040 19.47040 19.47040 3.150087 3.302044 3.786965
132 20.44020 20.44020 20.44020 3.372309 3.552900 3.949683
133 21.42860 21.42860 21.42860 3.765512 3.976126 4.457379
134 22.43590 22.43590 22.43590 4.033783 4.200540 4.769605
135 23.46280 23.46280 23.46280 4.372858 4.609696 5.147040
136 24.50980 24.50980 24.50980 4.634613 4.895148 5.461313
137 25.57760 25.57760 25.57760 5.151730 5.439376 6.069898
138 26.66670 26.66670 26.66670 5.581222 5.844974 6.473557
139 27.77780 27.77780 27.77780 6.106796 6.415361 7.108105
140 28.91160 28.91160 28.91160 6.562122 6.953178 7.576555
141 30.06870 30.06870 30.06870 7.066791 7.403870 8.248494
142 31.25000 31.25000 31.25000 7.694689 8.059494 8.992395
143 32.45610 32.45610 32.45610 8.288209 8.735340 9.531335
144 33.68790 33.68790 33.68790 8.950575 9.401046 10.31571
145 34.94620 34.94620 34.94620 9.408296 9.887310 11.00332
146 36.23190 36.23190 36.23190 10.10098 10.61459 11.60075
147 37.54580 37.54580 37.54580 11.14028 11.75498 12.81396
148 38.88890 38.88890 38.88890 11.95549 12.55022 13.85980
149 40.26220 40.26220 40.26220 12.77661 13.46468 14.79757
150 41.66670 41.66670 41.66670 13.59852 14.30280 15.78903
151 43.10350 43.10350 43.10350 14.64874 15.37275 16.78090
152 44.57360 44.57360 44.57360 15.87456 16.64038 18.21338
153 46.07840 46.07840 46.07840 16.64807 17.53875 19.37159
154 47.61910 47.61910 47.61910 17.93903 18.94204 20.53037
155 49.19680 49.19680 49.19680 19.31973 20.41561 22.18393
156 50.81300 50.81300 50.81300 21.16445 22.28911 24.00211
157 52.46910 52.46910 52.46910 22.61249 23.78619 25.93004
158 54.16670 54.16670 54.16670 24.08054 25.38161 27.85930
159 55.90720 55.90720 55.90720 26.22745 27.67017 30.28480
160 57.69230 57.69230 57.69230 27.73067 29.18018 31.82711
161 59.52380 59.52380 59.52380 29.94994 31.48006 34.47169
162 61.40350 61.40350 61.40350 31.94839 33.51464 37.11518
163 63.33330 63.33330 63.33330 34.18035 36.00690 39.43281
164 65.31530 65.31530 65.31530 36.65358 38.66525 42.46452
165 67.35160 67.35160 67.35160 39.06272 41.20250 45.33017
166 69.44440 69.44440 69.44440 41.82253 44.12487 48.47191
167 71.59620 71.59620 71.59620 44.79135 47.07412 51.83090
168 73.80950 73.80950 73.80950 47.41442 49.95063 55.13896
169 76.08700 76.08700 76.08700 50.94695 53.67026 59.32724
170 78.43140 78.43140 78.43140 54.35476 57.11073 62.96275
171 80.84580 80.84580 80.84580 58.53282 61.36971 67.59019
172 83.33330 83.33330 83.33330 62.93133 66.12767 72.99262
173 85.89740 85.89740 85.89740 67.11335 70.53732 78.06251
174 88.54170 88.54170 88.54170 72.10195 75.90240 83.19112
175 91.26980 91.26980 91.26980 77.71730 81.78951 89.63885
176 94.08600 94.08600 94.08600 83.21839 87.53039 96.25086
177 100.0000 0.000000 32.38980 40.85503 21.53793 9.893652
178 100.0000 0.000000 45.16150 42.42686 22.14023 17.95470
179 91.26980 0.000000 0.000000 31.76265 16.94745 1.258181
180 100.0000 0.000000 0.000000 39.17438 20.88048 1.527702
181 100.0000 0.000000 17.75280 39.72721 21.09713 4.147605
182 100.0000 22.71230 30.68470 42.35739 24.63784 9.579104
183 100.0000 39.75700 51.83390 48.47642 32.02339 25.17790
184 18.88350 27.77800 0.000000 3.569180 5.162801 0.936792
185 32.34640 32.79880 0.000000 6.572549 8.092518 1.280272
186 46.69860 53.16780 35.86270 18.09500 22.14992 13.04725
187 49.34880 56.55630 64.38330 25.31044 26.92581 39.14089
188 58.68580 56.49050 71.34310 31.12453 29.76842 48.72428
189 79.31990 52.21870 81.83210 43.68201 33.80834 65.15431
190 100.0000 60.10890 86.93730 65.04549 49.50715 75.65087
191 100.0000 62.33620 100.0000 71.24904 53.36051 102.4045
192 13.66450 0.000000 10.50350 1.009034 0.563103 1.353605
193 21.48480 6.693300 12.87260 2.132397 1.459822 1.904367
194 0.000000 0.000000 15.76580 0.520896 0.279418 2.194347
195 10.23120 6.775800 21.78670 1.541578 1.079913 4.154068
196 12.87330 35.19490 34.12930 6.212502 8.264258 10.43206
197 34.07220 44.10490 48.44880 13.41586 14.87607 21.13620
198 47.75610 47.15130 73.31130 23.79252 21.04292 50.28472
199 100.0000 76.45810 87.84730 73.59278 65.65010 79.80620
200 100.0000 86.31870 87.52720 79.56576 77.56380 81.01498
201 100.0000 90.90290 100.0000 88.12281 86.25667 107.7039
202 0.000000 8.333300 0.000000 0.403199 0.661693 0.297833
203 21.48510 9.309000 0.000000 1.926486 1.554040 0.373881
204 33.38930 13.19240 0.000000 4.213734 3.155458 0.518803
205 52.69380 82.62360 0.000000 32.83237 50.79596 7.562720
206 81.66410 100.0000 43.27930 64.44239 85.93215 27.43448
207 0.000000 0.000000 52.46910 4.409413 1.767114 22.31603
208 24.35670 0.000000 54.31380 6.693783 2.911247 24.77759
209 27.15190 0.000000 76.25190 12.48620 5.185014 52.00609
210 47.90710 18.90550 85.76430 22.09167 11.36514 69.34220
211 47.80520 23.36970 100.0000 28.25846 14.57519 97.73546
212 0.000000 89.38080 100.0000 47.17838 62.43774 105.5100
213 29.14680 89.72320 100.0000 50.42776 64.74974 105.8841
214 0.000000 0.000000 0.000000 0.117645 0.123592 0.135676
215 34.59530 68.01990 0.000000 19.03084 31.62860 4.862420
216 72.00010 69.88250 44.44650 38.26467 43.24373 21.61780
217 75.13610 78.52880 56.54400 46.70082 53.79401 34.53544
218 81.37380 77.82920 67.78410 53.27351 56.22433 47.95011
219 38.95830 49.63190 0.000000 12.57047 17.51507 2.641005
220 42.81200 53.97380 44.09780 18.36210 22.55106 18.60464
221 51.01330 60.67670 54.74750 25.90826 30.18671 29.50701
222 100.0000 64.84510 57.03910 58.73052 50.30982 33.68795
223 100.0000 89.60350 61.20510 74.23857 79.02720 43.06287
224 100.0000 100.0000 69.43480 84.55328 95.89222 56.38787
225 0.000000 57.22310 61.80420 16.78946 22.77077 35.68156
226 0.000000 63.16940 79.26250 23.96582 29.45774 60.54298
227 0.000000 75.83920 82.57250 31.64579 42.52253 68.72966
228 0.000000 33.23860 82.32600 15.45897 11.20795 63.00631
229 86.26340 40.08580 100.0000 51.90451 31.78264 99.47787
230 100.0000 46.94340 100.0000 65.37804 41.90704 100.6519
231 55.65570 0.000000 46.49220 13.92340 6.959823 18.02556
232 61.97800 0.000000 61.96190 19.58918 9.524571 33.05129
233 64.28320 0.000000 79.73500 25.49782 11.94546 57.75042
234 65.51090 38.44010 100.0000 38.68513 24.23693 98.89329
235 0.000000 57.43850 100.0000 29.39633 27.68450 100.0282
236 0.000000 69.23220 100.0000 35.07401 38.76012 101.7224
237 0.000000 79.28650 100.0000 40.25418 48.86654 103.4080
238 0.000000 100.0000 100.0000 55.44394 78.59291 108.2949
239 41.14570 61.90360 14.80030 18.24912 27.17483 6.049567
240 29.45930 100.0000 0.000000 39.31120 72.82300 11.48389
241 51.48480 100.0000 0.000000 45.53524 76.14901 11.66502
242 68.85940 100.0000 0.000000 53.50468 80.41979 11.94488
243 84.42830 100.0000 25.51960 64.22496 86.06659 17.81552
244 0.000000 83.23780 65.05820 30.97219 49.20673 44.04847
245 0.000000 100.0000 72.82040 45.77555 74.93774 58.77373
246 31.44190 100.0000 77.64480 50.51595 77.35298 66.16646
247 88.00960 100.0000 89.29520 80.62664 92.82519 87.74489
248 0.000000 22.70190 12.17820 1.912739 3.178936 2.066666
249 19.59820 61.80650 25.61130 14.69316 25.17925 9.182268
250 29.81700 64.15160 38.71420 18.86647 28.96566 16.50482
251 58.62830 70.49850 44.70870 32.04980 40.44138 21.77576
252 37.52290 55.92210 64.27410 21.81440 25.04848 38.99782
253 57.02940 68.61900 66.41240 34.53933 39.72591 43.83461
254 30.31540 52.11580 39.95110 14.01924 19.24162 15.53560
255 40.71810 78.52530 39.10610 28.69512 44.52235 18.92578
256 40.67270 76.39110 57.55720 30.81564 43.85720 34.44643
257 67.79490 87.99980 74.76300 53.54867 65.78469 59.71099
258 0.000000 32.37600 44.67860 6.290360 7.387146 16.82955
259 0.000000 31.74310 56.56220 8.270136 7.897197 27.75232
260 0.000000 13.72460 53.07620 5.181637 3.073868 23.15359
261 51.21240 15.95560 52.99850 14.33747 8.228251 23.87026
262 68.45770 15.51530 59.09530 23.31830 12.76106 30.73875
263 15.70430 38.98080 21.86760 6.292725 9.710330 5.513153
264 26.46080 39.54470 28.68790 8.263725 10.87596 8.218034
265 46.79030 39.70850 100.0000 30.92733 20.38726 98.67226
266 31.60630 0.000000 100.0000 22.09700 8.831003 96.90822
267 30.15180 79.79030 100.0000 43.68939 51.23496 103.7252
268 54.89290 100.0000 100.0000 66.15864 84.37135 108.8881
269 83.12640 40.05950 0.000000 30.21417 22.88640 2.462579
270 84.86570 54.04310 0.000000 35.82766 32.21703 3.834000
271 85.97680 62.21810 16.29310 40.66841 39.50203 7.296861
272 100.0000 65.36900 34.79570 55.57627 49.64931 15.79595
273 100.0000 74.98390 50.84990 62.65927 59.89168 28.89410
274 64.12910 18.75960 0.000000 15.36907 9.755980 1.000031
275 64.31110 24.95320 21.47070 17.07953 11.74007 5.070070
276 69.51550 25.82790 32.68140 20.79351 13.80459 9.720215
277 0.000000 91.26980 0.000000 29.77204 58.03802 9.202707
278 0.000000 100.0000 44.40300 39.61469 72.54499 27.20427
279 0.000000 100.0000 59.41380 42.46828 73.66046 41.80867
280 26.97220 100.0000 60.47310 45.21298 75.16375 43.16688
281 0.000000 63.86050 53.89740 18.01134 27.75645 28.04702
282 45.12390 75.31030 74.00700 35.69042 44.88599 55.45315
283 48.12080 77.39130 100.0000 47.08368 50.93824 103.5033
284 66.55150 87.32860 100.0000 61.89562 68.50923 105.9369
285 73.65960 100.0000 100.0000 75.35369 89.28067 109.2699
286 100.0000 100.0000 100.0000 95.09020 99.89666 110.0814
287 0.000000 50.00600 45.26140 11.00211 16.43658 18.61446
288 13.98220 56.69330 56.09680 16.29923 22.54108 29.85549
289 67.21130 57.21490 58.28580 32.07104 31.23265 32.95016
290 52.18150 0.000000 14.08620 9.430230 5.021784 2.249957
291 67.86790 0.000000 13.61320 16.37998 8.713904 2.483500
292 75.92930 0.000000 26.11570 21.70345 11.44208 6.258377
293 100.0000 0.000000 69.75130 47.66190 24.13580 44.96688
294 100.0000 0.000000 83.31030 51.63900 25.62454 65.22509
295 100.0000 25.58860 84.33060 54.24327 29.89743 68.22692
296 46.44320 39.12810 0.000000 11.40759 12.50429 1.779192
297 50.78740 47.96930 26.32940 16.95013 18.92137 8.057894
298 53.39510 83.80030 29.83400 35.60515 53.39251 14.95434
299 0.000000 49.33310 19.24590 8.158302 14.87128 5.482279
300 0.000000 49.65050 33.39750 9.395633 15.58058 11.10672
301 0.000000 100.0000 86.77060 50.11326 76.58528 80.95401
302 26.30010 100.0000 90.22280 53.87473 78.45962 88.18763
303 30.80580 100.0000 100.0000 58.78158 80.44840 108.6600
304 100.0000 21.57900 14.58440 41.08682 23.93985 3.877090
305 100.0000 40.81490 38.50600 46.79864 31.86780 15.19143
306 0.000000 10.68380 0.000000 0.541649 0.928696 0.346852
307 0.000000 13.15790 0.000000 0.724481 1.283435 0.403344
308 24.78820 16.60410 20.27690 3.545727 3.090530 3.854530
309 25.47100 18.92660 74.58380 12.92148 7.030190 50.16053
310 0.000000 9.707100 37.69130 2.605130 1.646060 11.23244
311 55.59830 19.40760 40.21160 14.26778 8.900754 13.87311
312 55.05480 43.16190 66.58440 23.54295 19.47730 41.13267
313 82.08700 0.000000 38.07540 27.07794 14.12769 12.50008
314 100.0000 0.000000 57.20740 44.58152 22.95457 29.09990
315 100.0000 27.17420 56.98690 46.93696 27.41358 30.01876
316 26.74570 0.000000 22.68310 3.118940 1.602850 4.290431
317 35.22330 14.47210 22.99780 5.548755 3.921701 4.796640
318 43.35380 0.000000 27.47490 7.311666 3.779024 6.272724
319 59.44200 0.000000 27.69830 13.45090 7.033385 6.689414
320 78.21600 0.000000 100.0000 40.96116 18.84773 97.66798
321 100.0000 0.000000 100.0000 58.10979 27.96331 98.38384
322 100.0000 26.15050 100.0000 60.40361 32.27998 99.19125
323 0.000000 100.0000 0.000000 36.48901 71.23432 11.38169
324 0.000000 100.0000 25.46530 37.58299 71.74698 16.71743
325 31.24280 100.0000 38.87460 42.26267 74.15129 23.94591
326 39.54930 100.0000 52.29260 46.30328 76.01018 34.30985
327 59.11800 100.0000 79.68800 60.32670 82.47540 69.78731
328 0.000000 0.000000 91.26980 15.28574 5.846970 78.42814
329 0.000000 0.000000 100.0000 18.82450 7.097003 96.70914
330 0.000000 19.52040 100.0000 20.04326 9.450972 97.17003
331 47.55600 53.37610 100.0000 35.64923 29.08770 100.0662
332 21.14110 0.000000 36.03790 3.469879 1.619603 10.16518
333 26.22140 9.483700 46.29980 5.984059 3.231235 17.58928
334 0.000000 11.02600 29.19940 1.816118 1.483797 6.723247
335 0.000000 35.80580 28.78920 5.076624 7.831472 7.747409
336 0.000000 40.80560 44.34830 8.046116 10.88261 17.13641
337 0.000000 55.56790 81.75680 21.79557 23.96750 63.72877
338 33.24220 57.90630 90.73870 29.66560 29.00101 80.79716
339 57.42820 0.000000 100.0000 30.20971 13.12991 97.29635
340 62.86860 19.32640 100.0000 33.99573 16.83127 97.85062
341 67.10700 65.57290 100.0000 49.33544 43.75927 102.0283
342 85.01870 65.70150 100.0000 60.67179 50.03581 102.5104
343 64.47960 42.80550 0.000000 19.75564 18.22792 2.291105
344 76.36170 65.39430 17.52630 35.77531 39.10218 7.786462
345 54.31810 51.91970 0.000000 18.31764 21.57279 3.017073
346 68.60170 54.85520 0.000000 26.20193 27.55124 3.604628
347 80.99140 75.48550 10.64970 43.91578 50.58695 7.957084
348 62.64860 69.87530 33.79340 32.05757 40.09030 14.73008
349 75.19820 82.36590 39.52490 46.30035 57.50334 20.57957
350 0.000000 44.32820 65.26910 13.07686 14.29154 38.45573
351 0.000000 44.01250 79.81190 17.12342 15.66134 59.70085
352 0.000000 85.76140 81.85610 37.70075 54.79811 69.39330
353 100.0000 49.26860 0.000000 46.82917 35.78766 3.805166
354 100.0000 67.85250 0.000000 54.53677 50.80320 6.116694
355 100.0000 74.28650 24.78530 58.93099 57.69033 12.19493
356 100.0000 83.08380 42.92260 66.24159 68.97511 23.65719
357 100.0000 85.38670 68.13470 73.10405 74.16336 50.97311
358 0.636100 0.636100 0.636100 0.169876 0.176444 0.209412
359 1.282100 1.282100 1.282100 0.211106 0.220682 0.255954
360 0.000000 1.938000 0.000000 0.183486 0.244896 0.187374
361 0.000000 3.968300 0.000000 0.248510 0.367684 0.227940
362 0.000000 6.097600 0.000000 0.323835 0.509465 0.265221
363 14.05170 12.75030 0.000000 1.408331 1.619993 0.420889
364 23.19450 16.59780 31.93370 4.224885 3.320649 8.516519
365 35.05250 24.38850 42.79830 8.502275 6.692270 15.18912
366 53.27630 29.31330 42.49170 15.12631 11.42237 15.38728
367 66.14270 30.57040 51.77160 22.48096 15.35801 23.48053
368 70.32940 43.92540 62.66070 30.06111 23.40156 36.42414
369 0.000000 7.592700 11.71160 0.613748 0.680185 1.573259
370 34.22070 26.30690 14.85820 6.240995 6.194450 2.896960
371 61.76420 37.09120 25.47850 18.40663 15.65006 7.168209
372 37.37530 24.24010 0.000000 6.221291 5.836951 0.883427
373 43.29800 32.87620 45.37840 12.68706 10.98830 18.11216
374 66.58520 49.69400 69.60630 31.82045 26.80851 45.85904
375 74.05270 62.70440 69.26910 40.95409 38.82472 47.62617
376 38.79950 0.000000 15.31550 5.279149 2.808929 2.389011
377 37.25460 0.000000 35.67380 6.384362 3.173757 10.05684
378 39.88640 0.000000 49.54800 9.065319 4.314831 19.92532
379 72.49810 9.831300 52.18500 23.56709 12.47933 23.25056
380 0.000000 0.000000 0.000000 0.117570 0.123526 0.135713
381 3.968300 0.000000 0.000000 0.250838 0.193507 0.161475
382 22.71750 39.99620 0.000000 6.465090 10.16673 1.677873
383 23.97320 55.05450 0.000000 11.37601 19.55371 3.110996
384 50.62380 64.17740 0.000000 21.94014 30.81225 4.513040
385 67.58610 67.50470 0.000000 30.87219 37.72459 5.212265
386 84.74350 68.59640 0.000000 42.28876 44.77068 5.773620
387 100.0000 83.23310 0.000000 63.12260 67.54686 8.726641
388 100.0000 100.0000 55.89120 81.34218 94.63721 40.35665
389 0.000000 20.32440 16.65260 1.821945 2.727162 2.885933
390 0.000000 20.25560 27.35220 2.508737 2.999582 6.406574
391 0.000000 20.90930 36.96700 3.458369 3.450422 11.03195
392 0.000000 48.03260 59.95840 13.01757 15.99588 32.76555
393 33.45970 47.96850 74.24020 20.38909 19.54942 51.57662
394 82.64800 75.87100 100.0000 64.09314 59.14199 104.0410
395 100.0000 78.50070 100.0000 79.51046 69.48186 105.1339
396 12.22270 18.40790 0.000000 1.721488 2.414565 0.549003
397 18.93680 25.38020 17.24080 3.754490 4.757654 3.305958
398 21.10300 26.00890 39.62140 6.002101 5.783972 13.17719
399 51.09770 35.38950 40.54330 15.05778 12.94513 14.58896
400 68.61040 41.44030 39.23880 24.39081 20.13512 14.56703
401 100.0000 54.88350 63.72670 56.07339 42.81348 40.14731
402 100.0000 71.31720 73.68250 66.09756 58.21083 55.87197
403 6.097600 0.000000 0.000000 0.326584 0.233121 0.173220
404 8.333300 0.000000 0.000000 0.411110 0.277480 0.185433
405 10.68380 0.000000 0.000000 0.555406 0.353561 0.203214
406 0.000000 83.33330 0.000000 23.96416 46.70222 7.410744
407 0.000000 82.68660 48.02090 27.08826 47.22481 25.54046
408 66.16250 100.0000 63.58190 59.06702 82.47401 47.25763
409 88.01140 100.0000 73.35520 75.30644 90.77305 61.06305
410 100.0000 100.0000 81.50650 88.04488 97.23728 74.61620
411 100.0000 100.0000 91.48200 91.55665 98.56383 92.45892
412 48.06990 17.54420 0.000000 8.592437 6.024758 0.759098
413 48.69780 24.69860 16.85530 10.13897 7.972278 3.498617
414 55.39060 41.07660 22.76760 16.34523 15.88555 6.194505
415 58.84250 42.10080 37.05650 19.46247 17.68212 12.89627
416 72.48870 59.40630 44.21930 33.41022 33.46661 20.09783
417 81.01470 63.76930 55.51910 43.20395 41.40268 31.57585
418 81.36480 72.51510 75.13630 52.37133 51.60170 57.73077
419 78.69640 0.000000 61.48540 28.83332 14.44444 33.54255
420 81.88360 0.000000 80.52510 36.33927 17.65287 59.71541
421 83.78930 31.63050 85.96400 42.70471 25.12873 70.90813
422 24.44160 20.88940 88.20100 17.39387 9.079636 73.00548
423 26.14070 30.54510 100.0000 24.01253 13.90946 98.00920
424 28.15630 56.24500 100.0000 31.88409 28.66292 100.2816
425 69.57100 79.05190 100.0000 57.85599 58.48277 104.3453
426 88.58930 86.95280 100.0000 75.66730 75.46601 106.5031
427 86.96640 64.51260 67.26400 50.32138 45.40685 45.66860
428 90.05690 76.53430 68.98110 59.34812 58.81589 49.93566
429 91.50990 86.30860 69.60400 66.67934 71.41630 52.51014
430 38.13310 76.49050 19.71810 25.24639 41.50544 9.567493
431 65.53400 88.74720 45.45460 46.21830 63.60167 26.18303
432 73.64130 92.23150 62.64810 56.75768 72.65271 44.37806
433 76.47640 100.0000 77.97110 68.71895 87.04002 67.75575
434 36.44430 64.04260 27.41340 18.88546 28.86100 10.36660
435 51.57010 72.60680 32.18640 28.37963 39.89838 13.95815
436 91.12710 82.32730 33.06410 56.86551 63.32030 17.16089
437 59.20550 28.50870 11.15930 14.82712 11.38421 2.505590
438 58.64720 30.64210 28.12060 16.01319 12.33327 7.817566
439 34.05020 12.46230 8.517200 4.498993 3.215034 1.288464
440 42.56890 17.91610 20.35600 7.704617 5.539370 4.053092
441 53.88440 19.49960 21.95650 11.82842 7.914830 4.829580
442 58.18790 26.69880 33.46060 15.48140 11.06119 10.02109
443 60.60160 41.12280 52.61290 22.42646 18.64017 25.02145
444 69.86890 78.26670 81.29450 50.25630 54.78034 67.60605
445 74.85040 89.58030 92.77760 64.88351 72.51239 92.09913
446 8.200700 38.45600 46.79870 8.295757 10.26528 19.15713
447 21.45460 49.89210 52.79780 13.85376 17.70146 25.74176
448 30.51070 63.31950 67.97800 23.97246 30.06113 44.71378
449 57.89460 72.80700 85.26310 42.92212 46.39225 73.46200
450 13.44170 0.000000 20.69470 1.413737 0.714556 3.604908
451 21.90200 6.112400 26.68520 2.942632 1.756602 5.840593
452 75.25100 37.90990 42.93660 27.60152 20.59317 16.72552
453 74.79890 65.23700 86.25360 47.98485 43.59490 74.82250
454 90.61750 65.46410 90.34430 60.75315 50.55115 82.33374
455 43.91690 0.000000 65.50690 13.54113 6.180050 37.48737
456 54.10480 13.74220 72.91180 19.79647 10.14181 47.96277
457 71.46650 19.95550 81.16480 31.24609 16.68758 61.42701
458 93.86450 41.68530 88.05050 53.49842 34.01986 75.78722
459 14.24510 72.96840 36.38830 20.62646 35.92114 15.98980
460 42.49580 89.97650 36.08530 36.58352 59.85108 19.39269
461 20.64470 76.50740 14.45580 21.65809 39.56549 8.071250
462 21.42260 90.22470 21.18330 31.17542 57.47879 12.67087
463 52.70100 90.02870 87.00630 52.30697 66.95638 79.87871
464 53.06590 40.99700 56.48170 20.06797 17.25655 29.21407
465 66.46620 53.28500 64.26430 31.51671 28.65208 39.23997
466 79.91390 55.92000 65.32890 41.02832 35.32474 41.73651
467 87.73620 58.75810 78.34240 51.33213 41.75965 60.44115
468 90.58930 83.85920 80.37190 67.56240 69.13411 68.07754
469 42.54660 86.27980 8.815400 32.03308 53.89165 9.037424
470 51.57200 92.48820 23.57590 40.89505 65.43031 14.41574
471 64.21640 100.0000 26.71650 52.26853 79.67164 17.72594
472 68.04490 89.73660 16.90280 45.66433 64.90960 11.96917
473 22.80710 64.23460 12.75110 15.59812 27.45239 5.913833
474 23.99180 79.70060 31.06270 24.98567 43.71802 14.45922
475 29.15380 84.99240 63.17470 34.70278 53.32490 42.35570
476 45.73080 89.68870 70.92590 44.38168 63.05643 54.03062
477 23.32330 32.44530 16.15830 5.372401 7.314705 3.449989
478 25.41630 33.92100 29.56350 6.912819 8.378223 8.042914
479 74.44940 36.57400 32.17170 25.45369 19.04072 10.21596
480 79.26110 51.82520 44.28760 34.46068 29.95335 19.41776
481 68.61770 47.93590 35.77300 25.77353 23.54773 12.84331
482 72.27500 51.64680 50.39400 31.26613 28.11320 24.27547
483 76.41390 60.53430 76.58050 43.51326 38.65339 57.70367
484 86.97570 66.64690 77.19460 53.89205 48.20813 59.57540
485 1.938000 0.000000 0.000000 0.185302 0.159096 0.149187
486 10.74310 6.381200 0.000000 0.763868 0.745792 0.293555
487 10.72330 13.43610 5.610700 1.258642 1.571718 0.847179
488 11.56400 17.23270 32.23680 3.136723 2.853173 8.476950
489 14.14330 17.36590 49.79840 5.689314 3.868159 20.51940
490 17.97850 17.08820 61.43120 8.501104 4.997759 33.03480
491 30.36970 67.60770 62.35840 24.60540 33.60319 38.10893
492 41.43240 86.27650 89.31750 46.48552 59.64683 83.30975
493 52.60950 100.0000 89.81660 61.01132 82.31759 87.81333
494 11.85260 18.90020 8.163500 1.879058 2.553804 1.275416
495 20.56510 19.59350 11.25490 2.862469 3.196906 1.859272
496 39.84780 23.88410 19.64950 7.648248 6.457082 4.104720
497 49.42090 30.33960 30.75710 12.23687 10.16645 8.684583
498 63.53280 38.13840 44.01110 21.47374 17.28943 17.47869
499 67.16770 68.83290 54.74140 36.85650 41.62928 31.12676
500 79.75540 71.18270 55.09090 45.25671 47.59604 31.81351
501 68.43630 53.94670 18.31140 26.56643 27.28354 6.404485
502 84.87940 57.74700 28.62780 38.71172 35.65373 10.99947
503 100.0000 57.42810 41.80670 52.72171 42.79428 19.18925
504 13.78770 5.231700 9.378400 1.145019 0.883295 1.209345
505 15.05530 9.176800 31.20160 2.759036 1.786408 8.066037
506 14.95610 16.72760 39.36340 4.162568 3.221294 12.50223
507 12.26640 5.240200 36.38220 2.857982 1.530723 10.49418
508 12.98320 7.393900 50.62000 4.980377 2.456682 20.78108
509 15.83240 37.85920 64.25860 12.28409 11.76866 37.05053
510 25.53160 43.00580 100.0000 26.78385 19.45188 98.93990
511 27.13080 68.16600 100.0000 37.01180 39.00350 101.9719
512 35.62040 10.36790 71.63300 13.37264 6.419537 45.96357
513 37.51680 30.20760 86.00830 20.81022 12.97991 69.93890
514 31.32790 17.01140 100.0000 23.06091 10.68090 97.47453
515 16.67610 8.510900 65.23210 8.493774 3.964652 36.92234
516 16.61730 10.66730 87.89740 15.37372 6.720032 71.95176
517 39.33820 8.626300 90.46440 20.41246 9.069246 77.57891
518 70.01550 11.92470 90.73620 33.16102 16.14186 78.21774
519 19.84360 37.59340 42.09020 8.431742 10.19836 15.57909
520 19.53270 47.16640 56.72600 13.49488 16.05440 29.73438
521 39.75130 51.22980 68.13400 21.56317 22.12136 43.90225
522 0.000000 0.000000 0.000000 0.117694 0.123631 0.135959
523 29.54970 14.24000 14.37710 3.846181 3.020422 2.349604
524 73.21600 13.48120 13.91510 19.98819 11.51976 2.789805
525 76.97240 21.12120 25.54950 23.66903 14.48714 6.605344
526 81.87090 26.84330 42.89010 29.94181 18.60994 16.21642
527 87.58810 47.40120 41.92570 38.58736 30.12434 17.59761
528 51.41760 30.05810 0.000000 11.52543 9.931781 1.292451
529 65.77510 31.89190 0.000000 18.02019 13.84249 1.588967
530 73.04960 33.17610 74.05640 32.23839 20.61450 51.19330
531 72.69190 35.58180 87.17510 36.58006 22.93920 72.33996
532 72.75380 56.48570 88.58820 43.88172 35.83660 77.39476
533 8.801700 9.963500 17.79470 1.307667 1.197713 2.875533
534 50.20400 9.476300 22.62330 9.463843 5.459308 4.658036
535 71.26540 75.06210 21.50520 37.96653 47.02743 10.38999
536 84.96300 87.95180 22.84380 55.08507 67.88793 13.58005
537 0.000000 28.20400 65.21590 9.562266 7.458800 37.40472
538 12.32590 36.06640 71.84070 13.44531 11.37331 46.92566
539 0.000000 19.82330 46.97760 4.757025 3.797904 18.22259
540 14.57210 26.76920 50.80360 7.074101 6.209913 21.80254
541 19.03780 25.73480 62.45170 9.813117 7.223724 33.98710
542 81.88360 43.68580 64.28320 37.81871 27.37389 38.68213
543 27.94870 17.63440 8.502200 3.714382 3.418085 1.379916
544 27.72530 22.17520 18.07670 4.605177 4.541572 3.428983
545 30.32550 32.30700 61.75770 12.45714 10.14087 33.88568
546 14.09940 47.86670 75.76300 17.94406 18.13923 53.95520
547 16.74580 48.97050 88.62610 22.85616 20.74488 75.70282
548 15.96940 86.20310 90.75780 42.10086 57.16779 85.53505
549 60.53280 86.06960 90.35680 53.60252 63.03732 85.23778
550 43.85710 67.04630 59.64030 27.32470 34.85134 35.39344
551 57.96650 67.49420 73.82470 36.46360 39.56366 53.97696
552 18.71680 13.14690 21.52910 2.650865 2.229024 4.195969
553 29.72960 16.43670 27.73670 4.980367 3.776588 6.685216
554 29.40900 24.24280 32.96090 6.248429 5.652011 9.322494
555 45.86390 60.70670 32.85680 20.59040 27.79346 12.66394
556 71.02490 88.90220 34.33550 47.98435 65.12782 18.97701
557 89.28870 89.15240 43.27140 61.38835 72.17025 24.88505
558 30.93890 51.23650 14.14310 11.71104 17.88563 4.540378
559 62.90810 60.24380 18.17660 26.21040 30.70648 6.948428
560 83.28920 62.05630 41.91950 40.84561 39.04319 19.14286
561 57.34750 10.87990 13.69260 12.03694 7.062976 2.479159
562 64.85570 11.66550 24.08320 15.98261 9.172011 5.410981
563 88.85180 16.20150 23.91610 31.60832 17.95166 6.080272
564 88.82390 28.39400 22.10220 33.10234 20.99967 5.934374
565 88.39280 32.09760 38.07910 34.76499 22.66495 13.84591
566 88.07830 45.91270 49.73330 39.85644 29.91157 23.56933
567 93.87360 60.54320 63.43430 52.75850 44.17281 40.16585
568 92.72550 81.02820 88.23340 70.03727 67.62976 81.26878
569 27.75700 80.90800 75.09970 34.97384 48.94916 58.28226
570 37.00080 90.92510 80.89840 45.74703 64.58298 69.21466
571 55.94830 91.76450 51.15010 45.29131 66.44336 31.19472
572 84.87780 91.81190 53.93410 61.92903 75.25572 35.37813
573 18.19310 39.72390 12.22570 6.108228 9.820946 3.058685
574 38.50560 49.00300 22.43550 13.13375 17.50203 6.708367
575 54.39200 62.57730 48.85520 26.73369 31.85174 23.96762
576 58.26240 82.18020 52.16450 39.73794 53.72097 30.29592
577 59.69680 88.94890 66.16750 48.14750 64.38558 47.94565
578 45.38840 14.09310 8.467700 7.518516 5.006301 1.423036
579 57.01100 17.80190 9.171600 12.21117 7.946445 1.738183
580 71.07630 25.74320 15.01430 20.35188 13.74033 3.377560
581 83.66090 45.51980 75.13310 42.30247 30.16054 54.27964
582 88.55420 51.22970 90.69090 53.34203 38.15616 81.24886
583 88.96830 76.37100 92.83560 66.28028 61.39143 89.91100
584 92.62650 75.27590 16.89320 52.59035 55.25647 9.659504
585 100.0000 88.01060 24.04680 67.47845 74.59782 14.60320
586 0.000000 67.99810 22.68100 15.99318 29.89773 8.795270
587 17.47420 75.14160 59.24660 26.09798 40.25573 35.88800
588 39.26010 79.14080 68.27170 34.54824 47.56086 48.03593
589 84.52530 84.46020 91.27750 67.16880 68.76044 87.93133
590 28.74370 3.332700 34.66520 4.643785 2.408133 9.634919
591 28.18890 14.45210 39.11010 5.731486 3.799131 12.54298
592 49.64750 26.50930 47.67730 13.95093 9.969545 19.45065
593 5.738700 14.32480 10.12230 1.264262 1.714842 1.508862
594 9.250300 20.61520 14.02350 2.160171 3.014521 2.364994
595 33.53140 35.51230 43.37650 10.48165 10.55882 16.54375
596 46.05970 39.49370 46.32610 14.99140 14.19580 19.23076
597 56.90600 46.16820 47.66770 21.33151 20.15692 20.99388
598 67.77570 55.77180 48.95580 30.11375 29.74085 23.38548
599 76.37630 49.54910 11.38490 28.86932 26.13781 4.445054
600 90.08950 51.34930 13.43130 39.53970 32.85149 5.435287
601 100.0000 60.96200 16.18910 51.80942 44.77959 7.507932
602 25.15890 19.54090 0.000000 3.234946 3.411420 0.633477
603 49.74200 30.53070 12.12010 11.25017 9.903035 2.736000
604 67.18830 40.40490 11.77680 20.92262 18.10561 3.542003
605 78.86370 66.13440 64.74620 44.40106 43.32979 41.92943
606 83.17940 91.95510 100.0000 75.11003 80.20893 107.5813
607 100.0000 100.0000 100.0000 95.04092 99.82550 110.3010
608 13.31400 45.09440 43.76520 9.875944 13.55725 17.37336
609 17.23200 54.74630 46.04320 14.05202 20.67511 20.17896
610 43.49230 63.34390 46.44810 22.89297 30.44274 21.85779
611 55.43460 75.35120 63.82620 36.67076 45.81027 41.75935
612 58.21350 79.09750 74.98310 43.06350 51.88838 57.76795
613 36.24420 43.87590 36.49160 12.07059 14.41901 12.51451
614 42.06150 52.22640 51.98100 18.75168 21.54463 25.40144
615 41.94160 88.12310 53.61300 38.05588 58.60140 33.09852
616 15.11430 84.63220 55.52630 30.96011 51.11300 34.12616
617 15.27110 90.09620 76.16870 40.02347 60.85294 61.53990
618 24.37390 90.63620 87.57590 45.05948 63.41724 80.53505
619 53.57100 4.661900 35.22400 11.91493 6.341119 10.40137
620 64.48650 0.000000 41.16770 16.91764 8.666902 14.10364
621 81.86500 0.000000 49.76400 28.76067 14.76727 21.11968
622 81.82090 25.50850 53.60610 31.70395 19.07586 25.87684
623 87.87790 33.31800 64.75290 39.60627 24.94085 38.72391
624 94.47180 46.59040 74.81820 51.28531 35.52577 54.28740
625 46.31730 11.91910 38.78950 9.820388 5.677711 12.67703
626 59.46380 17.89120 49.48650 17.32033 10.18546 20.77768
627 62.87210 20.47470 68.91640 23.35435 13.09179 43.22816
628 86.13480 32.38610 74.51590 40.90062 24.96460 52.23386
629 59.93870 77.47320 25.62370 33.80614 46.74530 12.06530
630 70.47770 82.37830 50.37700 45.28878 56.76149 28.66719
631 87.00750 83.13320 52.79550 57.14773 63.78045 32.12359
632 31.72760 39.52570 10.43160 8.182705 10.96589 2.871923
633 34.15590 41.43250 24.32340 9.955277 12.59927 6.594884
634 33.91950 57.97980 57.92030 20.15587 25.28698 32.15253
635 46.95020 61.44740 63.92210 26.48219 30.52630 39.45846
636 41.28700 6.382600 11.26310 5.894144 3.446277 1.703617
637 40.73640 31.86920 10.94660 8.580163 8.822255 2.441493
638 47.61420 33.88400 25.40540 11.86490 11.07751 6.734207
639 48.34420 49.17280 40.00720 17.74514 19.74827 15.48713
640 58.40290 55.42180 49.52810 25.65930 27.07628 23.57383
641 63.27330 69.43260 61.66520 36.81099 41.70183 38.55332
642 78.01170 70.40680 81.13870 50.90677 49.36098 66.57009
643 46.65090 47.75710 54.69150 19.11683 19.55755 27.61737
644 58.37490 73.62750 55.61210 35.41060 44.13736 32.56595
645 81.23370 100.0000 58.98510 67.06836 86.88659 42.31464
646 0.000000 83.80370 28.53540 25.60714 47.90628 14.08011
647 19.30240 89.37510 44.94800 32.77843 57.15397 25.34528
648 23.83500 95.13280 66.50930 42.52596 68.36386 49.63840
649 0.000000 69.15590 47.98000 19.45251 32.31485 23.15181
650 13.69310 72.49770 64.74910 25.43134 37.49750 41.79157
651 30.91390 72.82790 75.59580 31.16477 40.49223 57.53845
652 49.43490 76.25910 91.66030 43.62975 48.96003 86.41870
653 53.48620 90.42700 100.0000 58.22212 69.72027 106.6184
654 7.303900 54.54180 70.43120 18.35979 21.97194 46.97359
655 12.60400 57.55430 90.88420 26.61067 27.11757 81.52720
656 16.93030 70.35450 95.13980 34.65001 39.55621 92.17275
657 0.000000 28.48100 30.17110 3.878245 5.344236 7.968160
658 16.18300 46.80610 31.16360 9.076386 14.02951 9.798036
659 33.08640 50.26160 31.00120 12.91863 17.82698 10.32336
660 35.36610 55.28900 49.52900 17.71824 22.82437 23.18386
661 11.52790 30.61940 21.77850 4.120368 6.020821 4.957351
662 45.99550 39.78300 24.46980 12.45412 13.18607 6.547549
663 55.20280 46.90290 37.08400 19.42574 19.72493 13.59112
664 62.66130 58.74330 44.81470 28.18929 30.42847 20.18163
665 33.61740 32.52640 14.27010 7.259744 8.332400 3.041098
666 39.86760 39.14910 29.65970 11.26404 12.31986 8.735684
667 48.46490 39.47180 36.95630 14.64910 14.20989 12.58156
668 69.10800 50.07690 55.69690 30.07012 26.52737 29.54686
669 88.39500 61.46870 57.09410 47.19580 41.86291 32.78747
670 38.30550 22.00320 8.835700 6.409947 5.460800 1.660790
671 43.23530 41.81330 12.23180 11.70473 13.73127 3.427400
672 55.21240 48.53270 11.95650 17.99858 19.97377 4.091029
673 62.51830 52.92950 30.29520 23.86520 25.09958 10.57223
674 58.83540 59.24550 35.92480 25.38451 29.29213 14.26572
675 73.05870 63.08340 34.46960 34.05595 36.34998 14.36169
676 80.00020 74.41990 37.09480 44.37953 50.00328 17.78805
677 88.24140 74.57510 49.51150 52.20675 53.97091 27.13956
678 49.69400 54.02230 21.45370 18.30158 22.81150 7.092453
679 52.78490 61.52500 75.83800 32.08425 33.05769 56.13451
680 52.67800 73.96330 79.08960 39.23981 45.65538 63.27642
681 8.271200 33.29160 50.90120 7.813211 8.353627 22.15724
682 28.50150 36.84070 56.25260 12.04374 11.49706 28.14007
683 40.79910 38.00640 60.03620 15.84755 13.82943 32.57587
684 45.68450 45.77230 60.48890 19.36845 18.60168 33.75716
685 63.98570 59.44740 67.47000 33.74752 33.26493 44.34313
686 20.95300 24.36230 29.91160 4.628802 4.830072 7.707617
687 26.92380 24.33020 48.21520 7.880125 6.231782 19.48069
688 36.54600 34.21730 49.28140 11.72394 10.70102 21.25691
689 66.19730 53.21810 100.0000 43.73522 33.42284 100.5653
690 82.40330 52.95610 100.0000 53.18352 38.26495 100.9422
691 0.000000 13.42510 13.30730 1.046130 1.417706 2.025705
692 0.000000 36.36090 17.47390 4.513214 7.881604 3.916310
693 54.23480 63.19310 17.21270 23.35673 30.75303 6.933158
694 89.16180 69.42590 33.92890 48.07378 48.42322 15.56011
695 40.25210 11.32160 44.17110 8.836221 5.007032 16.14565
696 43.83780 17.39830 59.56940 13.25645 7.605357 30.97099
697 67.28730 41.42930 71.66310 30.28145 22.34439 48.22745
698 70.20690 45.91690 87.78910 38.22407 27.54543 74.75710
699 20.37910 67.30960 48.23510 20.17953 31.61473 23.56890
700 45.09930 73.62930 47.84920 28.72837 40.76545 24.47188
701 70.39530 82.29850 76.73260 51.76070 59.32258 61.27968
702 82.17950 92.22600 76.56720 66.17012 77.13803 63.99853
703 82.37180 92.85350 88.40700 70.64756 79.87337 83.72006
704 32.39070 11.99100 59.61400 9.887883 5.189634 30.65193
705 34.70680 28.36160 68.29540 14.36160 9.935052 42.04771
706 46.22360 39.33410 77.14400 22.10794 16.82162 55.51930
707 48.31670 56.67170 80.12770 29.56290 28.84138 61.93195
708 62.10480 56.65730 80.23270 35.23985 31.59875 62.82642
709 81.18850 14.53910 32.88710 26.81420 15.13193 9.840333
710 90.09190 13.63710 58.73960 37.28347 19.97886 30.97643
711 33.69330 3.984200 21.66500 4.575035 2.568471 4.130730
712 46.33510 11.52720 28.11270 8.654905 5.176690 6.914332
713 92.26970 11.97530 33.80180 34.79301 19.04595 10.57202
714 100.0000 21.79470 42.87420 43.53349 24.88944 16.66404
715 100.0000 61.51170 76.66420 62.13568 49.23973 58.86168
716 72.39320 67.27910 61.12810 40.53135 42.21049 37.95499
717 71.30830 83.50100 64.16430 49.60926 59.77655 44.27103
718 86.35380 89.93570 68.04700 64.77569 74.11393 51.48463
719 92.47950 23.97080 6.298800 34.56559 20.89172 2.339573
720 91.61970 36.90980 9.236000 36.50293 25.28584 3.469258
721 92.32660 61.90380 46.20170 48.55999 43.13002 22.83337
722 0.000000 63.86130 33.75140 15.09544 26.60527 13.11299
723 9.994700 64.42650 71.39560 22.87946 30.19220 49.40747
724 11.17790 71.24360 82.59800 29.90654 38.24487 68.51939
725 19.20780 77.31770 92.78590 37.53287 46.22235 88.77584
726 70.82780 9.015800 35.26920 20.18694 11.00606 10.79846
727 71.40590 14.50640 43.77730 21.92515 12.32081 16.45334
728 89.07960 12.56400 76.52090 40.85054 21.04740 54.58869
729 8.521500 3.389500 12.75970 0.866733 0.639310 1.806009
730 12.37260 17.64340 25.82780 2.773460 2.789173 5.883382
731 12.24660 27.81910 35.36250 4.914404 5.661570 10.72062
732 74.30920 30.80200 62.03620 28.95079 18.60457 34.65560
733 21.55180 6.700600 19.21000 2.419165 1.570665 3.384816
734 34.59050 10.36870 30.41510 5.723241 3.454401 7.795321
735 40.12820 20.99170 37.04060 8.766620 6.395813 11.44028
736 46.01300 25.42630 74.48150 18.61954 11.35031 50.91594
737 53.68870 37.99250 87.60490 28.34189 19.36081 73.12079
738 56.60310 53.23890 90.62100 35.34438 29.53701 80.77431
739 18.52830 42.63420 59.63690 12.62597 13.65539 32.18224
740 19.82640 58.78850 69.39310 20.89086 25.73556 46.39314
741 19.07040 64.05790 83.00140 27.15817 31.69478 68.06638
742 31.75640 62.91230 86.70170 29.75130 32.05513 73.80751
743 49.80630 67.22550 89.52840 38.02965 39.34615 80.07311
744 63.16180 66.62630 90.39030 43.98110 42.21566 81.84521
745 73.36740 75.48770 90.98610 53.96622 53.89744 85.13363
746 20.97210 7.898100 6.760600 1.857639 1.394567 0.895592
747 23.41830 25.18060 7.006500 3.831091 4.749499 1.448526
748 56.54030 41.46860 12.50930 16.44399 16.14663 3.647518
749 55.13790 74.56940 9.335200 29.31096 42.09888 7.118879
750 55.34720 88.35670 77.52670 48.78157 63.50713 63.65044
751 70.12730 90.29920 86.73670 60.36671 71.30181 79.60847
752 12.80780 57.52960 37.87220 13.60917 21.99788 14.98321
753 31.26350 63.45340 51.54650 20.65956 29.10460 25.82928
754 86.09770 7.682500 11.85030 28.23007 15.40493 2.551220
755 89.68290 15.96390 46.84210 34.91328 19.33282 19.39738
756 89.91800 38.39600 54.95240 40.19769 27.18513 28.30308
757 0.000000 0.000000 0.000000 0.117647 0.123515 0.135960
758 18.76990 12.94190 9.855300 2.078104 1.959474 1.437240
759 80.25840 19.31710 9.230600 25.16552 15.02700 2.279820
760 79.01760 33.56650 12.21340 26.25350 18.84393 3.423082
761 85.99760 39.09650 30.19680 33.55144 24.26441 9.812223
762 70.57180 83.03490 0.000000 41.51586 55.87323 7.966939
763 87.84600 85.47390 0.000000 54.40029 65.10524 8.851704
764 11.11470 28.38190 10.56850 3.179065 5.057380 2.090005
765 20.56680 34.29110 46.05400 8.267683 8.917792 18.30995
766 25.29920 53.49230 71.81530 20.13015 22.23830 48.76590
767 28.38460 77.50910 85.88720 36.56503 46.45156 75.48513
768 40.65600 77.30330 88.60130 40.02374 47.86448 80.02075
769 0.000000 69.52210 67.15610 23.79498 34.38577 44.29419
770 16.28900 74.05610 74.28550 29.14396 40.39305 55.14779
771 51.25410 7.628000 58.57660 14.81019 7.451141 29.45971
772 73.97830 12.39390 71.03550 28.88956 14.93412 45.70434
773 73.80590 80.13080 69.88330 50.01837 56.55733 51.36033
774 86.99490 88.66090 79.57510 67.80902 74.04718 67.77134
775 88.68680 100.0000 100.0000 85.56256 94.73202 109.9754
776 0.000000 18.53530 83.37120 13.59963 6.878432 64.61192
777 12.77190 28.23670 88.13510 17.25886 10.53870 73.47204
778 59.63850 27.65580 87.27430 28.74087 16.60854 72.57346
779 77.48000 27.10130 100.0000 43.11658 23.24088 98.69878
780 29.25660 30.34330 21.46530 6.234613 7.044632 4.892984
781 37.87360 31.11820 27.20120 8.726835 8.561360 6.991499
782 70.58510 49.40440 26.71600 26.48431 24.79042 8.749572
783 100.0000 52.39930 52.17670 52.55560 39.93538 27.06338
784 25.41260 0.000000 12.45500 2.418210 1.301922 1.764639
785 31.51770 6.934900 12.62980 3.734207 2.339571 1.888291
786 34.33860 20.36860 51.93770 9.488980 6.285442 22.59183
787 88.36440 18.63430 67.60560 38.29443 20.84113 41.75494
788 100.0000 25.54890 69.54530 49.67761 28.13925 45.38830
789 71.98810 38.48330 21.37970 23.89673 19.03236 6.015023
790 83.21360 47.05010 20.59490 33.04497 27.21267 6.646792
791 91.80690 47.84490 28.90260 40.69524 31.65232 10.15123
792 58.91880 16.39160 33.19800 14.56478 8.815270 9.647505
793 67.63040 28.31940 42.86960 21.19836 14.35393 15.94864
794 76.26690 40.03610 53.74620 30.44263 22.44656 26.66773
795 80.60990 50.47100 55.20400 37.42152 30.67856 29.50418
796 89.06570 51.99810 64.51020 45.80461 35.68373 40.45954
797 35.45130 24.39480 25.95810 6.843041 6.046658 6.278422
798 39.65970 29.52750 35.75370 9.758562 8.669853 11.07833
799 14.87250 51.25600 13.44280 9.427642 16.63407 4.359401
800 21.18950 51.91390 26.69130 11.03020 17.61862 8.369522
801 16.02940 42.10160 34.13180 8.077117 11.58240 10.99297
802 29.25350 44.16720 41.72720 11.46475 14.17454 15.92950
803 33.37980 44.21860 55.32230 14.68799 15.56978 27.89308
804 55.51110 48.11850 57.10900 23.34892 21.97402 30.39811
805 91.43140 71.75030 56.81370 54.79303 52.99151 34.50819
806 92.66780 75.75620 75.32490 62.56286 59.68600 58.86569
807 44.96290 23.83140 31.44860 10.00580 7.604912 8.795944
808 44.65380 28.98950 54.08940 13.99606 10.41540 25.72715
809 60.53820 31.51570 59.05320 21.39948 14.76105 31.46167
810 47.49940 0.000000 83.35470 19.89175 8.732076 64.65683
811 88.55890 18.24350 88.78270 45.07842 23.37739 75.07721
812 87.95610 15.10870 100.0000 48.83546 24.18130 98.57212
813 0.000000 11.55860 21.17780 1.289627 1.321812 3.885598
814 8.748600 18.22330 20.76780 2.152221 2.569350 3.975868
815 13.00270 26.32250 24.59430 3.739554 4.771289 5.655424
816 25.53630 32.58670 36.02820 7.313091 8.161135 11.32718
817 27.40870 76.71570 47.33480 26.17743 41.95696 24.53091
818 49.50710 100.0000 67.59060 52.73203 78.92170 52.29959
819 73.25900 100.0000 90.34360 71.04318 87.61294 89.23381
820 15.42980 41.17570 88.87650 20.51183 16.10444 75.82569
821 36.17720 42.19450 88.39170 23.97614 18.55669 74.65897
822 44.59510 54.53320 89.96110 31.11014 27.97860 79.16297
823 50.13710 66.87700 100.0000 42.59904 41.15825 102.1976
824 84.77520 0.000000 18.99960 27.05510 14.36054 4.027952
825 100.0000 49.08950 19.77090 47.44029 35.99165 7.144536
END_DATA
CAL    

DESCRIPTOR "Argyll Device Calibration State"
ORIGINATOR "Argyll dispread"
CREATED "Tue May 26 15:31:53 2020"
DEVICE_CLASS "DISPLAY"
COLOR_REP "RGB"

BEGIN_ARGYLL_DISPCAL_ARGS
-v2 -qm -m -w0.3127,0.329 -gs -f1.0 -k0 -A4.0 -d1 -c1 -yn -P0.501639344262,0.176923076923,1.49553571429 -F
END_ARGYLL_DISPCAL_ARGS


NUMBER_OF_FIELDS 4
BEGIN_DATA_FORMAT
RGB_I RGB_R RGB_G RGB_B
END_DATA_FORMAT

NUMBER_OF_SETS 256
BEGIN_DATA
0.00000000 0.00000000 0.00000000 0.00000000
0.00392157 0.01828200 0.01862460 0.01849480
0.00784314 0.03273250 0.03327680 0.03288020
0.01176470 0.04435790 0.04495030 0.04432560
0.01568630 0.05376590 0.05424810 0.05357040
0.01960780 0.06158180 0.06190500 0.06118840
0.02352940 0.06826520 0.06842670 0.06763740
0.02745100 0.07415220 0.07415620 0.07326130
0.03137250 0.07946200 0.07931920 0.07827910
0.03529410 0.08433840 0.08407340 0.08285270
0.03921570 0.08890260 0.08853930 0.08710630
0.04313730 0.09323400 0.09279110 0.09112220
0.04705880 0.09737960 0.09686290 0.09494460
0.05098040 0.10138700 0.10080700 0.09863320
0.05490200 0.10526500 0.10462500 0.10220800
0.05882350 0.10902700 0.10833400 0.10568700
0.06274510 0.11270100 0.11196000 0.10910900
0.06666670 0.11628500 0.11549600 0.11247800
0.07058820 0.11978500 0.11894800 0.11580600
0.07450980 0.12324700 0.12235500 0.11913200
0.07843140 0.12667400 0.12571700 0.12245900
0.08235290 0.13005300 0.12902000 0.12577700
0.08627450 0.13338200 0.13226300 0.12908000
0.09019610 0.13668500 0.13547900 0.13239500
0.09411760 0.13999000 0.13869500 0.13573900
0.09803920 0.14329900 0.14191500 0.13912000
0.10196100 0.14661000 0.14514100 0.14253300
0.10588200 0.14991700 0.14836700 0.14596400
0.10980400 0.15322100 0.15159700 0.14940700
0.11372500 0.15653100 0.15484800 0.15287500
0.11764700 0.15986100 0.15813600 0.15637400
0.12156900 0.16321900 0.16146500 0.15990300
0.12549000 0.16660700 0.16484200 0.16346400
0.12941200 0.17002400 0.16826500 0.16704400
0.13333300 0.17344500 0.17170600 0.17060700
0.13725500 0.17686300 0.17515700 0.17414700
0.14117600 0.18027900 0.17862100 0.17767300
0.14509800 0.18369200 0.18209300 0.18118000
0.14902000 0.18708600 0.18556000 0.18465500
0.15294100 0.19048500 0.18904100 0.18812700
0.15686300 0.19390300 0.19254400 0.19160100
0.16078400 0.19733900 0.19606500 0.19507600
0.16470600 0.20079400 0.19960200 0.19856000
0.16862700 0.20427100 0.20315600 0.20204100
0.17254900 0.20774300 0.20669400 0.20549800
0.17647100 0.21120900 0.21021700 0.20893100
0.18039200 0.21466700 0.21372100 0.21235300
0.18431400 0.21813300 0.21722600 0.21577600
0.18823500 0.22161600 0.22073800 0.21919800
0.19215700 0.22511300 0.22425100 0.22261100
0.19607800 0.22860200 0.22773800 0.22598700
0.20000000 0.23206700 0.23119700 0.22934700
0.20392200 0.23552400 0.23464100 0.23269400
0.20784300 0.23899500 0.23809000 0.23604800
0.21176500 0.24248800 0.24155600 0.23941300
0.21568600 0.24600600 0.24503600 0.24278800
0.21960800 0.24954900 0.24853700 0.24619300
0.22352900 0.25313900 0.25208100 0.24963200
0.22745100 0.25675100 0.25563500 0.25306300
0.23137300 0.26035000 0.25917300 0.25647800
0.23529400 0.26393500 0.26269000 0.25988000
0.23921600 0.26750700 0.26619100 0.26326700
0.24313700 0.27106400 0.26967700 0.26664400
0.24705900 0.27462800 0.27317300 0.27003900
0.25098000 0.27822200 0.27669100 0.27345800
0.25490200 0.28185600 0.28024000 0.27689800
0.25882400 0.28552900 0.28381400 0.28035800
0.26274500 0.28923000 0.28740800 0.28382700
0.26666700 0.29292900 0.29098700 0.28727100
0.27058800 0.29659100 0.29452400 0.29067600
0.27451000 0.30023300 0.29804700 0.29407000
0.27843100 0.30387600 0.30157100 0.29746900
0.28235300 0.30751700 0.30509100 0.30087200
0.28627500 0.31114700 0.30860100 0.30426700
0.29019600 0.31475000 0.31209100 0.30763600
0.29411800 0.31834000 0.31557100 0.31098900
0.29803900 0.32193100 0.31905700 0.31434300
0.30196100 0.32553500 0.32255900 0.31771000
0.30588200 0.32915000 0.32607700 0.32109100
0.30980400 0.33278700 0.32962100 0.32449500
0.31372500 0.33647700 0.33322500 0.32795800
0.31764700 0.34019700 0.33686500 0.33146800
0.32156900 0.34391300 0.34050800 0.33498600
0.32549000 0.34762200 0.34414700 0.33850500
0.32941200 0.35132500 0.34778100 0.34202900
0.33333300 0.35502600 0.35141200 0.34555700
0.33725500 0.35872400 0.35503500 0.34908100
0.34117600 0.36243700 0.35866900 0.35261300
0.34509800 0.36615500 0.36230900 0.35615800
0.34902000 0.36984000 0.36592200 0.35969500
0.35294100 0.37348600 0.36949100 0.36319000
0.35686300 0.37713500 0.37305500 0.36665700
0.36078400 0.38078600 0.37662000 0.37012500
0.36470600 0.38443100 0.38017600 0.37358400
0.36862700 0.38808400 0.38372700 0.37703800
0.37254900 0.39175700 0.38729600 0.38051200
0.37647100 0.39545800 0.39089200 0.38401100
0.38039200 0.39918500 0.39451200 0.38753600
0.38431400 0.40293400 0.39815700 0.39108600
0.38823500 0.40666000 0.40180300 0.39465400
0.39215700 0.41031800 0.40539200 0.39818200
0.39607800 0.41390900 0.40891600 0.40164700
0.40000000 0.41745000 0.41238600 0.40506100
0.40392200 0.42097400 0.41583800 0.40844500
0.40784300 0.42448800 0.41929100 0.41183600
0.41176500 0.42802400 0.42275400 0.41523600
0.41568600 0.43159800 0.42626100 0.41867800
0.41960800 0.43520100 0.42981200 0.42216400
0.42352900 0.43882900 0.43339700 0.42568300
0.42745100 0.44249400 0.43702300 0.42923200
0.43137300 0.44618900 0.44069100 0.43282300
0.43529400 0.44987400 0.44438100 0.43645100
0.43921600 0.45353600 0.44805000 0.44007500
0.44313700 0.45720700 0.45171300 0.44368000
0.44705900 0.46090200 0.45539800 0.44729800
0.45098000 0.46461100 0.45910100 0.45093900
0.45490200 0.46831600 0.46280300 0.45458900
0.45882400 0.47203300 0.46650900 0.45823000
0.46274500 0.47575800 0.47022200 0.46187700
0.46666700 0.47949300 0.47394100 0.46552100
0.47058800 0.48324100 0.47766800 0.46916400
0.47451000 0.48701500 0.48141200 0.47281300
0.47843100 0.49082100 0.48518100 0.47648000
0.48235300 0.49467400 0.48899000 0.48017700
0.48627500 0.49860300 0.49285000 0.48391500
0.49019600 0.50264500 0.49681100 0.48771000
0.49411800 0.50671700 0.50084700 0.49161700
0.49803900 0.51077900 0.50487000 0.49555000
0.50196100 0.51483000 0.50887600 0.49946500
0.50588200 0.51886900 0.51286300 0.50336100
0.50980400 0.52288600 0.51682800 0.50723700
0.51372500 0.52687100 0.52075900 0.51108200
0.51764700 0.53082600 0.52465400 0.51488600
0.52156900 0.53475500 0.52851600 0.51864800
0.52549000 0.53865200 0.53235100 0.52237700
0.52941200 0.54253200 0.53616100 0.52607000
0.53333300 0.54640100 0.53996600 0.52974300
0.53725500 0.55022700 0.54375500 0.53341600
0.54117600 0.55399900 0.54749300 0.53706700
0.54509800 0.55773800 0.55119100 0.54066300
0.54902000 0.56146600 0.55488100 0.54422300
0.55294100 0.56519900 0.55857500 0.54779000
0.55686300 0.56895100 0.56229400 0.55137400
0.56078400 0.57271300 0.56603500 0.55499100
0.56470600 0.57645800 0.56978700 0.55863800
0.56862700 0.58014300 0.57349400 0.56229600
0.57254900 0.58377200 0.57714300 0.56591800
0.57647100 0.58737800 0.58076000 0.56949800
0.58039200 0.59096200 0.58437000 0.57306700
0.58431400 0.59451800 0.58796200 0.57663900
0.58823500 0.59804700 0.59153900 0.58020300
0.59215700 0.60156800 0.59511400 0.58375800
0.59607800 0.60508400 0.59869700 0.58732100
0.60000000 0.60858700 0.60227100 0.59089400
0.60392200 0.61207400 0.60583100 0.59446400
0.60784300 0.61555000 0.60937800 0.59803000
0.61176500 0.61900200 0.61291100 0.60159000
0.61568600 0.62242600 0.61642000 0.60512700
0.61960800 0.62584000 0.61992300 0.60862700
0.62352900 0.62927100 0.62345000 0.61210800
0.62745100 0.63272000 0.62699700 0.61560100
0.63137300 0.63618100 0.63055500 0.61910500
0.63529400 0.63968200 0.63414200 0.62262200
0.63921600 0.64324000 0.63777900 0.62618400
0.64313700 0.64688100 0.64149000 0.62980700
0.64705900 0.65061800 0.64529300 0.63351400
0.65098000 0.65446400 0.64920400 0.63732200
0.65490200 0.65842300 0.65321900 0.64123400
0.65882400 0.66249600 0.65733800 0.64524900
0.66274500 0.66668700 0.66156200 0.64936800
0.66666700 0.67089300 0.66578800 0.65358100
0.67058800 0.67501000 0.66991300 0.65774200
0.67451000 0.67903600 0.67392900 0.66179000
0.67843100 0.68296600 0.67782700 0.66572100
0.68235300 0.68679500 0.68161100 0.66953700
0.68627500 0.69054100 0.68530400 0.67324500
0.69019600 0.69423100 0.68893700 0.67686700
0.69411800 0.69788400 0.69253000 0.68044100
0.69803900 0.70151000 0.69609400 0.68397800
0.70196100 0.70512700 0.69964700 0.68751200
0.70588200 0.70873400 0.70317800 0.69105400
0.70980400 0.71232600 0.70668400 0.69459800
0.71372500 0.71594300 0.71020200 0.69815800
0.71764700 0.71958500 0.71373900 0.70175300
0.72156900 0.72325700 0.71730400 0.70537500
0.72549000 0.72697000 0.72090400 0.70902900
0.72941200 0.73069800 0.72451700 0.71270500
0.73333300 0.73442100 0.72811500 0.71636000
0.73725500 0.73815600 0.73171400 0.71999500
0.74117600 0.74190500 0.73531300 0.72362300
0.74509800 0.74567100 0.73891600 0.72723900
0.74902000 0.74948500 0.74254600 0.73084400
0.75294100 0.75335000 0.74622600 0.73447200
0.75686300 0.75723200 0.74992400 0.73811600
0.76078400 0.76113200 0.75363800 0.74175800
0.76470600 0.76504400 0.75736500 0.74540000
0.76862700 0.76896800 0.76110400 0.74904300
0.77254900 0.77288400 0.76484700 0.75269500
0.77647100 0.77677700 0.76857900 0.75633000
0.78039200 0.78066700 0.77230800 0.75994100
0.78431400 0.78457000 0.77606300 0.76356900
0.78823500 0.78849500 0.77984300 0.76723300
0.79215700 0.79246300 0.78367200 0.77094400
0.79607800 0.79647000 0.78755900 0.77472000
0.80000000 0.80051200 0.79149600 0.77855900
0.80392200 0.80453500 0.79546700 0.78245500
0.80784300 0.80848400 0.79939600 0.78635600
0.81176500 0.81236400 0.80327100 0.79021100
0.81568600 0.81619200 0.80709600 0.79401800
0.81960800 0.81999500 0.81089200 0.79778500
0.82352900 0.82380400 0.81469600 0.80153000
0.82745100 0.82761300 0.81851100 0.80528500
0.83137300 0.83142600 0.82232900 0.80904400
0.83529400 0.83525400 0.82616100 0.81280700
0.83921600 0.83910100 0.83001800 0.81658100
0.84313700 0.84296100 0.83389000 0.82035400
0.84705900 0.84682800 0.83776600 0.82412100
0.85098000 0.85072500 0.84165600 0.82787800
0.85490200 0.85466000 0.84558500 0.83165700
0.85882400 0.85862700 0.84955300 0.83546800
0.86274500 0.86256200 0.85352700 0.83931100
0.86666700 0.86644300 0.85745200 0.84313200
0.87058800 0.87028700 0.86133300 0.84690800
0.87451000 0.87410000 0.86518900 0.85065100
0.87843100 0.87791200 0.86902700 0.85437200
0.88235300 0.88174200 0.87288000 0.85809600
0.88627500 0.88560200 0.87676100 0.86184800
0.89019600 0.88949400 0.88067900 0.86563800
0.89411800 0.89337800 0.88460600 0.86947400
0.89803900 0.89723700 0.88849900 0.87331200
0.90196100 0.90108100 0.89236300 0.87713300
0.90588200 0.90493400 0.89622200 0.88094800
0.90980400 0.90880600 0.90009200 0.88479600
0.91372500 0.91266900 0.90396200 0.88868400
0.91764700 0.91650300 0.90779500 0.89257300
0.92156900 0.92033800 0.91161100 0.89644100
0.92549000 0.92418200 0.91544000 0.90032800
0.92941200 0.92801200 0.91926300 0.90423800
0.93333300 0.93183800 0.92307800 0.90814400
0.93725500 0.93566600 0.92689900 0.91206500
0.94117600 0.93949500 0.93072500 0.91599800
0.94509800 0.94333800 0.93457300 0.91994800
0.94902000 0.94719700 0.93844000 0.92391800
0.95294100 0.95107500 0.94233200 0.92790100
0.95686300 0.95497500 0.94624900 0.93189600
0.96078400 0.95889200 0.95019300 0.93590600
0.96470600 0.96282800 0.95416200 0.93993600
0.96862700 0.96678500 0.95815700 0.94398700
0.97254900 0.97076100 0.96217200 0.94805600
0.97647100 0.97475300 0.96620300 0.95213900
0.98039200 0.97876200 0.97025000 0.95623800
0.98431400 0.98278700 0.97431400 0.96035300
0.98823500 0.98682900 0.97839300 0.96448400
0.99215700 0.99088800 0.98249000 0.96863000
0.99607800 0.99496400 0.98660300 0.97279200
1.00000000 0.99905700 0.99073200 0.97696900
END_DATA
