CTI3   

DESCRIPTOR "Argyll Calibration Target chart information 3"
ORIGINATOR "Argyll dispread"
CREATED "Thu Dec 06 10:38:20 2018"
DEVICE_CLASS "DISPLAY"
SINGLE_DIM_STEPS "17"
COMP_GREY_STEPS "49"
DARK_REGION_EMPHASIS "1.6"
COLOR_REP "RGB_XYZ"
TARGET_INSTRUMENT "X-Rite i1 DisplayPro, ColorMunki Display"
DISPLAY_TYPE_REFRESH "NO"
DISPLAY_TYPE_BASE_ID "1"
INSTRUMENT_TYPE_SPECTRAL "NO"
LUMINANCE_XYZ_CDM2 "37.077382 39.092509 42.375028"
NORMALIZED_TO_Y_100 "YES"
VIDEO_LUT_CALIBRATION_POSSIBLE "YES"

BEGIN_ARGYLL_COLPROF_ARGS
-v -qh -aX -bn -C "No copyright. Created with DisplayCAL 3.7.1.3 and ArgyllCMS 2.0.1" -M "Color LCD" -A "Apple Computer Inc"
END_ARGYLL_COLPROF_ARGS

OBSERVER "1931_2"
USE_BLACK_POINT_COMPENSATION "NO"
BLACK_POINT_CORRECTION "0.0"
HIRES_B2A "YES"
HIRES_B2A_SIZE "-1"
SMOOTH_B2A "YES"
PATCH_SEQUENCE "OPTIMIZE_DISPLAY_RESPONSE_DELAY"

NUMBER_OF_FIELDS 7
BEGIN_DATA_FORMAT
SAMPLE_ID RGB_R RGB_G RGB_B XYZ_X XYZ_Y XYZ_Z
END_DATA_FORMAT

NUMBER_OF_SETS 417
BEGIN_DATA
1 100.0000 100.0000 100.0000 94.84524 100.0000 108.3968
2 1.960800 1.960800 1.960800 0.205460 0.208436 0.310818
3 3.921600 3.921600 3.921600 0.401731 0.417571 0.512391
4 5.882400 5.882400 5.882400 0.578135 0.604236 0.705780
5 9.803900 9.803900 9.803900 1.068657 1.099698 1.281615
6 13.72600 13.72600 13.72600 1.755825 1.855749 2.052402
7 17.64700 17.64700 17.64700 2.613255 2.754881 3.017379
8 21.56900 21.56900 21.56900 3.699273 3.893628 4.250848
9 25.49000 25.49000 25.49000 5.078913 5.335084 5.928250
10 29.41200 29.41200 29.41200 6.749391 7.064575 7.770869
11 33.33300 33.33300 33.33300 8.709039 9.163505 10.08587
12 37.25500 37.25500 37.25500 10.84555 11.42491 12.53987
13 41.17600 41.17600 41.17600 13.47454 14.19280 15.51592
14 45.09800 45.09800 45.09800 16.14465 17.01624 18.51441
15 49.02000 49.02000 49.02000 19.05728 20.14566 21.71104
16 52.94100 52.94100 52.94100 22.45178 23.55233 25.91458
17 56.86300 56.86300 56.86300 26.59469 27.91693 30.54334
18 60.78400 60.78400 60.78400 30.98307 32.57979 35.43906
19 64.70600 64.70600 64.70600 35.54105 37.25553 40.85182
20 68.62700 68.62700 68.62700 40.58925 42.52972 46.58942
21 72.54900 72.54900 72.54900 45.69275 47.75855 52.28651
22 76.47100 76.47100 76.47100 51.43432 53.93718 59.00390
23 80.39200 80.39200 80.39200 57.67962 60.58849 66.25731
24 84.31400 84.31400 84.31400 64.30526 67.70847 73.46533
25 88.23500 88.23500 88.23500 71.33985 75.21878 81.84055
26 92.15700 92.15700 92.15700 78.83034 82.90238 90.20831
27 96.07800 96.07800 96.07800 86.74083 91.54233 98.65575
28 0.000000 33.69920 36.29640 5.416638 7.380493 11.30463
29 10.62830 38.28100 46.87270 8.381920 10.27192 19.07097
30 56.29250 38.47240 64.89440 22.44468 17.45708 37.83998
31 69.79310 51.67880 70.54940 34.53469 29.22947 46.64899
32 44.94700 13.52420 14.26840 7.498342 4.863060 2.319650
33 61.16420 13.55620 17.49270 13.91326 8.304335 3.310888
34 70.53330 15.80030 40.29360 21.12917 12.07850 14.11637
35 88.39700 23.77870 85.27780 43.85776 24.17471 67.82818
36 100.0000 41.58210 84.69670 57.23052 36.51933 68.92353
37 70.04420 0.000000 62.84960 23.90714 11.89251 33.90001
38 69.86910 83.71670 75.79000 51.93885 60.54454 59.12087
39 0.000000 75.90140 66.29860 26.60132 40.22334 43.28952
40 35.18730 77.95380 81.30930 36.55985 46.96467 66.26350
41 67.70150 96.37480 86.43320 64.09578 80.20037 79.43372
42 85.26860 100.0000 86.66860 77.56027 91.39796 81.71648
43 58.33020 66.62790 0.000000 25.56340 33.65155 4.562754
44 76.42430 82.83420 0.000000 44.50824 56.70861 7.480831
45 85.77620 89.08880 23.03420 56.65871 69.69159 13.66170
46 14.91980 10.93020 28.94020 2.607143 1.921816 6.774220
47 17.55500 13.18990 43.94410 4.696972 3.056392 15.43557
48 91.68290 18.28080 49.68310 36.84819 20.61682 21.61282
49 100.0000 32.03110 51.59840 46.45120 28.74585 24.57112
50 31.25000 0.000000 0.000000 3.032404 1.660283 0.291934
51 36.88520 0.000000 0.000000 4.154737 2.254587 0.325167
52 57.82370 0.000000 75.66610 20.96522 9.886705 50.88595
53 64.57990 36.55890 85.47920 32.06941 21.21072 68.77346
54 85.86700 41.22900 84.99170 45.87286 30.39115 68.90695
55 100.0000 68.19160 84.47390 67.47876 56.21437 71.38290
56 0.000000 2.941200 0.000000 0.191296 0.253354 0.233950
57 0.000000 13.15790 0.000000 0.703558 1.245822 0.377250
58 0.000000 18.40670 16.36350 1.543804 2.216482 2.706821
59 62.39340 100.0000 21.93290 51.23137 78.75164 15.38971
60 84.69180 100.0000 36.65480 65.65716 86.38694 23.01415
61 100.0000 100.0000 100.0000 94.94809 100.0033 108.8814
62 0.000000 31.25000 0.000000 2.872204 5.448759 0.985213
63 0.000000 36.88520 0.000000 3.947990 7.534397 1.293244
64 0.000000 81.67560 0.000000 22.51935 43.30529 6.563539
65 0.000000 87.20930 0.000000 26.27957 50.75055 7.691187
66 52.55810 86.89350 69.46370 44.32671 60.07375 50.33152
67 0.000000 0.000000 2.941200 0.152364 0.129633 0.389735
68 0.000000 0.000000 6.097600 0.206754 0.152148 0.671078
69 0.000000 0.000000 9.493700 0.280566 0.182279 1.052269
70 0.000000 0.000000 13.15790 0.405335 0.233398 1.697084
71 0.000000 0.000000 17.12330 0.553309 0.293638 2.450912
72 0.000000 0.000000 21.42860 0.775661 0.383056 3.595039
73 0.000000 0.000000 26.11940 1.078230 0.504974 5.160579
74 0.000000 0.000000 31.25000 1.527596 0.685327 7.479375
75 0.000000 0.000000 36.88520 2.065989 0.902017 10.28652
76 0.000000 0.000000 43.10350 2.871303 1.225161 14.42674
77 0.000000 0.000000 50.00000 3.844035 1.614751 19.45661
78 0.000000 0.000000 57.69230 5.278070 2.186889 26.90562
79 0.000000 0.000000 66.32650 7.224858 2.963867 36.98511
80 0.000000 0.000000 76.08700 9.848084 3.999191 50.51378
81 0.000000 0.000000 87.20930 13.41510 5.380340 68.98070
82 29.58280 21.58910 100.0000 23.13057 11.78849 96.64285
83 32.01180 75.30880 100.0000 41.55913 46.55217 101.9938
84 1.938000 1.938000 1.938000 0.205047 0.208122 0.311062
85 2.941200 2.941200 2.941200 0.304943 0.313097 0.418032
86 3.968300 3.968300 3.968300 0.401558 0.417477 0.512779
87 5.020100 5.020100 5.020100 0.504869 0.525528 0.628391
88 6.097600 6.097600 6.097600 0.602664 0.616240 0.743901
89 7.201600 7.201600 7.201600 0.671462 0.696334 0.847557
90 8.333300 8.333300 8.333300 0.813895 0.852871 0.984975
91 9.493700 9.493700 9.493700 0.994634 1.023404 1.195683
92 10.68380 10.68380 10.68380 1.176439 1.230069 1.434750
93 11.90480 11.90480 11.90480 1.400522 1.473897 1.622063
94 13.15790 13.15790 13.15790 1.677877 1.763985 1.973461
95 14.44440 14.44440 14.44440 1.925357 2.033127 2.232510
96 15.76580 15.76580 15.76580 2.126232 2.227523 2.528284
97 17.12330 17.12330 17.12330 2.504334 2.644123 2.874914
98 18.51850 18.51850 18.51850 2.786359 2.900424 3.262690
99 19.95310 19.95310 19.95310 3.214698 3.364116 3.793341
100 21.42860 21.42860 21.42860 3.698546 3.893038 4.253133
101 22.94690 22.94690 22.94690 4.209393 4.381777 4.890561
102 24.50980 24.50980 24.50980 4.673550 4.881309 5.406206
103 26.11940 26.11940 26.11940 5.368364 5.676799 6.142285
104 27.77780 27.77780 27.77780 6.085905 6.428658 6.938541
105 29.48720 29.48720 29.48720 6.751320 7.063748 7.777172
106 31.25000 31.25000 31.25000 7.658533 8.053638 8.904206
107 33.06880 33.06880 33.06880 8.498036 8.967716 9.848163
108 34.94620 34.94620 34.94620 9.474119 9.932291 10.88096
109 36.88520 36.88520 36.88520 10.57230 11.14206 12.27353
110 38.88890 38.88890 38.88890 11.85061 12.47016 13.68910
111 40.96050 40.96050 40.96050 13.20077 13.92642 15.23296
112 43.10350 43.10350 43.10350 14.68363 15.42727 17.12781
113 45.32160 45.32160 45.32160 16.40786 17.32557 18.89890
114 47.61910 47.61910 47.61910 17.90419 18.73984 20.61509
115 50.00000 50.00000 50.00000 20.12729 21.23702 23.05593
116 52.46910 52.46910 52.46910 22.07338 23.16940 25.56059
117 55.03140 55.03140 55.03140 24.53446 25.77732 28.23312
118 57.69230 57.69230 57.69230 27.47839 28.84660 31.60205
119 60.45750 60.45750 60.45750 30.54236 32.07586 35.06671
120 63.33330 63.33330 63.33330 33.67987 35.25069 38.67142
121 66.32650 66.32650 66.32650 37.44394 39.24395 43.11533
122 69.44440 69.44440 69.44440 41.63052 43.66299 47.42989
123 72.69500 72.69500 72.69500 45.68188 47.75820 52.23531
124 76.08700 76.08700 76.08700 50.84891 53.27332 58.46289
125 79.62960 79.62960 79.62960 56.07506 59.16746 64.20940
126 83.33330 83.33330 83.33330 62.22131 65.32916 71.05780
127 87.20930 87.20930 87.20930 69.29331 73.02924 79.22944
128 91.26980 91.26980 91.26980 77.16067 81.10214 88.61326
129 100.0000 34.20770 0.000000 42.24617 27.48600 2.331811
130 100.0000 35.10330 22.00570 43.33293 28.36305 6.493121
131 66.32650 0.000000 0.000000 15.00942 8.009716 0.623832
132 75.02780 0.000000 19.48310 20.46271 10.82507 3.873706
133 83.42410 17.37640 33.64540 28.39682 16.26500 10.47353
134 89.93640 20.53730 71.85680 40.45764 22.25191 46.73205
135 84.18970 0.000000 83.21720 38.33379 18.76260 63.27770
136 41.63670 48.31160 37.03570 14.95081 17.74043 13.24847
137 58.02350 48.75870 38.46870 21.09965 21.22525 14.56528
138 74.59480 88.32680 41.71960 50.50275 65.36823 23.26231
139 100.0000 100.0000 52.01680 80.16614 94.00571 35.65992
140 0.000000 66.32650 0.000000 13.85164 26.75367 4.113151
141 0.000000 76.08700 0.000000 18.94815 36.64331 5.569968
142 24.53180 85.31300 17.91290 27.87526 50.52352 10.26240
143 43.29550 86.68960 38.25260 34.84033 55.33176 20.07650
144 58.74660 87.39430 55.83460 44.03391 60.79695 34.62213
145 100.0000 0.000000 55.75320 43.73568 22.58723 27.24382
146 100.0000 25.92750 68.43920 49.15053 28.09315 43.65285
147 100.0000 50.92540 68.93840 55.40680 40.21196 46.27207
148 67.65310 26.84940 31.62820 20.04177 13.54069 9.424750
149 86.99000 34.58010 37.72560 34.29763 23.08956 13.65265
150 77.86580 43.70990 36.11380 29.88741 23.88931 13.03831
151 76.86780 43.64180 46.25450 30.79822 24.22549 19.99990
152 92.82250 53.72910 58.36040 47.78765 37.55819 33.01398
153 60.76430 19.43240 87.06170 27.62214 14.62568 70.60932
154 82.11680 27.58750 100.0000 46.10648 25.36321 97.67906
155 85.33780 72.65660 100.0000 64.16197 56.69906 102.3048
156 100.0000 84.69800 100.0000 83.47301 77.77054 105.2803
157 15.24550 63.60280 29.25850 15.05568 25.88325 10.69352
158 37.56430 69.57690 40.22920 23.09703 34.24598 18.14370
159 19.66710 66.16190 47.95880 19.11712 29.69168 22.74515
160 37.71690 82.78860 55.00120 33.14587 50.25677 32.30518
161 44.79580 82.94670 76.90800 40.85511 54.16785 60.33533
162 69.80840 82.71700 87.39220 55.55773 61.28724 78.58470
163 0.000000 53.42190 44.53180 11.66392 17.84989 18.27604
164 0.000000 64.99520 100.0000 32.52736 34.26712 99.98093
165 0.000000 81.99830 100.0000 41.83949 52.39804 102.5739
166 0.000000 100.0000 100.0000 55.36927 78.54766 107.1816
167 83.92110 42.89750 0.000000 31.32240 24.41056 2.482910
168 91.57890 43.02390 32.05860 39.22004 28.79605 11.32108
169 100.0000 67.56550 66.54070 61.68829 53.21806 45.16714
170 34.67670 0.000000 76.89480 13.94335 6.121039 52.34459
171 43.19300 0.000000 100.0000 24.69639 10.49147 96.16347
172 56.60760 32.13060 100.0000 33.05814 19.65805 97.29661
173 31.45400 20.69610 81.31190 16.19570 9.021534 60.25483
174 47.74740 41.40210 87.14520 26.68202 19.97148 71.71086
175 0.000000 52.71610 56.87290 13.51540 18.24701 28.99595
176 13.97720 61.52300 58.09140 18.50502 26.31175 31.86962
177 22.75040 62.94730 68.12840 22.53980 29.04233 44.47125
178 0.000000 57.65020 74.54400 19.93927 24.07414 51.73702
179 0.000000 73.98680 77.96680 28.51019 39.32303 58.81258
180 16.83260 82.26360 78.59660 34.98083 50.08062 61.62455
181 17.77700 86.23340 42.63470 30.03273 52.19178 22.71676
182 17.37250 88.26640 60.32230 34.62826 56.25079 39.24710
183 15.66300 37.06320 14.98470 5.430273 8.643142 3.330826
184 41.16850 39.52990 64.39190 17.37572 15.23686 37.23645
185 80.35620 47.95300 61.15170 37.10885 29.02965 34.98264
186 0.000000 0.000000 0.000000 0.119630 0.115801 0.213863
187 0.957900 0.957900 0.957900 0.136167 0.134342 0.230935
188 18.92920 12.15260 20.65600 2.467382 1.996493 3.845219
189 29.27290 23.05660 38.51200 6.722178 5.560164 12.40412
190 31.56920 36.62900 47.43300 10.83897 10.99970 19.50766
191 0.000000 100.0000 68.97380 44.47545 74.24423 52.79336
192 0.000000 100.0000 85.81780 49.62078 76.38619 78.56647
193 49.03980 100.0000 86.40460 58.46031 81.06414 80.15290
194 61.75810 24.23300 0.000000 14.55894 10.20781 1.053201
195 75.41470 27.13760 16.11240 22.98170 15.32917 3.703629
196 88.93330 77.05520 15.40060 50.03367 54.52139 8.902110
197 0.000000 19.18560 74.31790 10.56283 6.008018 48.80342
198 0.000000 27.63420 100.0000 21.00086 11.87402 96.65256
199 0.000000 48.37720 100.0000 25.90033 21.41596 97.92177
200 18.80790 15.78530 60.64290 8.076155 4.702703 31.22661
201 21.14980 49.30290 61.04740 15.25128 17.95548 33.92460
202 49.57290 50.68740 63.78600 22.97032 22.60556 37.90356
203 56.76030 64.16820 73.29420 33.76768 35.77386 51.91268
204 88.44340 73.79710 77.18890 58.33426 55.37698 59.68452
205 88.87230 79.13080 88.80350 65.90196 63.75959 80.78482
206 100.0000 84.51080 84.72720 77.37396 75.11134 75.07512
207 100.0000 100.0000 86.56760 89.44493 97.77052 82.50008
208 100.0000 100.0000 100.0000 94.94809 100.0033 108.8814
209 74.90970 52.39990 46.67430 32.30847 28.80254 21.16326
210 76.30390 57.41380 59.86330 37.64826 34.05176 34.63700
211 89.27120 72.83880 65.78140 55.36303 53.60314 44.47369
212 57.91840 83.49110 18.75320 36.05301 52.96664 10.43530
213 57.11420 88.72850 89.94840 53.99006 66.23142 84.08885
214 60.63650 88.50720 100.0000 60.08234 68.92887 105.0034
215 81.41760 100.0000 100.0000 80.74139 92.27660 107.9966
216 0.000000 34.41100 22.97660 4.318638 7.044724 5.258704
217 0.000000 51.67440 25.72430 9.159408 16.15253 7.533407
218 12.56450 51.65040 34.66680 10.69632 17.05458 11.80584
219 30.76910 54.12860 28.59010 13.29782 19.57003 9.299985
220 36.49010 57.93400 42.40000 17.80673 24.08757 17.91351
221 38.27350 57.48020 52.60670 19.80509 24.81826 25.97614
222 53.97580 61.01900 52.05110 26.32295 30.46991 26.30356
223 34.16010 43.28480 21.72970 10.12517 13.20055 5.590861
224 45.17990 56.16180 25.20020 17.47293 22.98237 8.271946
225 57.20150 56.09300 35.61880 22.98955 25.88079 13.55114
226 70.57240 62.06100 56.31940 35.63457 35.92009 31.16025
227 15.84100 11.01420 0.000000 1.362799 1.392412 0.357685
228 28.23380 17.22340 0.000000 3.481538 3.192133 0.537342
229 48.74830 33.20720 9.761400 11.12521 10.59675 2.359350
230 100.0000 100.0000 0.000000 75.39435 91.68726 12.02675
231 100.0000 100.0000 29.74660 77.22496 92.60996 19.83094
232 0.000000 0.000000 0.000000 0.119773 0.116044 0.213881
233 9.493700 0.000000 0.000000 0.480234 0.307732 0.224398
234 13.15790 0.000000 0.000000 0.730202 0.440720 0.231214
235 17.12330 0.000000 0.000000 1.057029 0.613829 0.240523
236 34.97430 0.000000 15.41190 4.231857 2.251865 2.280237
237 52.20840 15.46090 27.65770 10.80823 6.713651 6.707155
238 0.000000 100.0000 0.000000 36.30739 70.70388 10.80698
239 0.000000 100.0000 29.38120 37.87856 71.42963 17.76861
240 38.69960 100.0000 32.73130 43.47107 74.51572 19.90459
241 35.27070 56.97970 0.000000 13.84859 21.35637 3.128157
242 56.39460 67.80450 45.54920 29.12623 36.30420 21.71533
243 39.64190 35.99440 0.000000 8.782272 10.02033 1.413161
244 60.53120 37.73040 0.000000 16.50024 14.66668 1.724235
245 67.50160 40.19370 17.54520 21.44565 18.24614 4.659637
246 87.17700 42.42540 17.47640 34.38858 25.98242 5.237976
247 24.90610 11.66740 14.26360 2.903673 2.271793 2.140284
248 26.25420 22.45810 14.17790 4.111221 4.317731 2.444530
249 43.73260 29.18890 18.56020 9.264516 8.382744 3.873463
250 58.52730 37.56420 31.17030 17.37308 15.11302 9.458367
251 85.95450 67.65090 44.33360 45.81261 45.35304 21.62296
252 100.0000 80.15610 49.84880 64.97306 65.16253 28.53286
253 47.85210 46.72620 14.87540 14.44194 16.84047 4.247318
254 59.89180 47.14270 25.34730 20.11807 20.08651 7.759420
255 73.13530 66.04790 50.30640 37.29668 39.31543 25.48354
256 25.28430 70.11790 21.57860 18.97122 32.74002 8.584546
257 32.06540 70.68540 61.02910 26.14715 36.37926 36.83619
258 0.000000 0.000000 100.0000 18.59584 7.249773 95.78981
259 71.97470 0.000000 100.0000 37.31224 17.17061 96.57342
260 100.0000 100.0000 100.0000 94.94809 100.0033 108.8814
261 12.98100 22.00360 11.97120 2.432223 3.339864 1.977842
262 23.94850 31.13330 17.27430 5.241904 6.733938 3.466031
263 25.49740 38.78430 29.40580 8.014598 10.50612 8.333074
264 29.05990 41.30960 41.75120 10.68608 12.69185 15.63100
265 0.000000 17.12330 0.000000 1.010906 1.840994 0.462257
266 0.000000 21.42860 0.000000 1.438138 2.670748 0.582245
267 20.67250 23.98150 0.000000 3.092407 3.994683 0.708983
268 34.27010 32.28960 11.13170 7.076525 8.081523 2.379761
269 39.38120 68.88100 13.85600 20.89426 32.94084 6.485977
270 53.37230 73.96450 34.57370 29.63563 41.13217 15.24238
271 0.000000 16.23400 37.80870 3.017176 2.534196 11.22396
272 16.77070 25.06420 40.78700 5.503747 5.282978 13.91250
273 17.94750 46.73830 39.34950 10.10424 14.28505 14.32180
274 16.66600 46.56450 47.31950 11.06951 14.68090 20.11030
275 41.01830 53.23270 60.24210 20.44477 22.48179 33.76981
276 41.61160 53.31670 76.59820 24.75468 24.33031 54.90054
277 47.18850 65.53910 86.05080 34.65589 36.56316 72.04389
278 29.13460 61.77640 75.25480 25.10245 29.66303 53.96621
279 46.35750 69.04280 76.86670 33.19007 38.58824 57.77989
280 87.78780 56.67940 10.28060 39.45722 35.33305 5.032004
281 100.0000 57.03360 25.82260 50.17898 41.16903 9.821912
282 100.0000 62.74760 45.94260 55.24961 47.05192 22.71619
283 78.87430 53.74300 33.98810 33.41142 30.18330 13.01933
284 89.65070 63.61570 52.64710 48.07059 43.52237 28.02488
285 0.000000 50.00000 0.000000 7.509065 14.43437 2.304070
286 0.000000 57.69230 0.000000 10.17795 19.60919 3.057328
287 41.37670 77.05330 0.000000 25.27221 41.01818 5.943818
288 39.65960 100.0000 55.20360 46.92531 76.00732 37.07323
289 65.85700 100.0000 74.03870 61.97611 83.49585 60.83283
290 0.000000 26.11940 0.000000 2.065203 3.881898 0.758321
291 16.63270 26.53350 32.92870 4.800203 5.374809 9.338817
292 0.000000 0.000000 0.000000 0.119912 0.116086 0.213988
293 17.59950 0.000000 14.96530 1.478074 0.793273 2.100423
294 23.66800 0.000000 33.05280 3.471156 1.691147 8.558206
295 27.58800 31.78940 78.28220 16.19043 11.60083 55.53289
296 32.07780 41.44070 100.0000 27.64911 19.76595 97.86730
297 31.81590 58.80860 100.0000 33.37950 31.07859 99.42817
298 82.02550 50.81110 100.0000 52.21076 37.11871 99.24166
299 100.0000 62.44930 100.0000 70.77539 53.34484 101.1750
300 95.52850 95.52850 95.52850 85.75436 90.59767 97.68268
301 54.96330 49.45220 0.000000 17.28882 19.57332 2.560791
302 71.73160 59.11300 19.62160 30.02655 31.65363 7.159290
303 95.64320 19.35830 12.02010 36.42240 20.95798 2.965955
304 100.0000 0.000000 0.000000 38.54502 20.48520 1.320845
305 100.0000 0.000000 20.12670 39.28790 20.79824 4.663308
306 100.0000 26.10910 33.35660 42.73057 25.56349 11.24506
307 100.0000 49.25790 47.16820 50.15946 37.16268 22.16517
308 2.941200 0.000000 0.000000 0.194596 0.156332 0.216497
309 6.097600 0.000000 0.000000 0.321341 0.223517 0.220001
310 12.35660 32.71230 59.10050 9.535437 8.891512 30.26137
311 18.94020 44.09350 64.92890 14.26115 15.03487 38.17410
312 17.00960 86.55470 70.74010 35.73098 55.13587 51.35156
313 36.25600 100.0000 72.77200 50.24071 77.28665 58.59693
314 43.67690 100.0000 0.000000 42.63820 74.21018 11.03269
315 75.13150 100.0000 0.000000 56.89085 81.82910 11.43607
316 26.88180 39.21780 0.000000 6.889753 10.05333 1.546002
317 53.56610 42.62470 43.27820 18.16139 17.20052 17.27732
318 43.10350 0.000000 0.000000 5.721689 3.086229 0.368405
319 57.69230 0.000000 0.000000 10.85621 5.808472 0.508554
320 50.00000 0.000000 0.000000 7.872575 4.226700 0.425932
321 53.86080 0.000000 0.000000 9.169350 4.913418 0.461736
322 55.66460 0.000000 21.67990 10.85073 5.720746 4.065707
323 60.86130 0.000000 39.07290 14.82884 7.617345 12.64173
324 86.03620 0.000000 57.21130 32.57178 16.63887 28.27163
325 100.0000 0.000000 77.46180 49.04368 24.69965 54.76442
326 100.0000 0.000000 100.0000 57.54038 27.88473 97.54656
327 100.0000 34.95780 100.0000 61.74669 35.74567 98.58660
328 43.97140 20.90410 0.000000 7.369248 5.751903 0.734341
329 55.86930 24.47110 14.24870 12.42655 9.085250 2.773156
330 57.61740 34.40950 40.11860 17.40026 14.01177 14.48608
331 35.76900 13.97530 38.71790 7.090934 4.505409 12.40231
332 43.09590 22.63010 54.36350 12.32675 8.183083 25.09963
333 83.21620 25.27600 56.22760 32.53385 19.40561 27.82501
334 91.01480 41.59620 68.40250 44.82868 30.41761 43.77841
335 80.56870 0.000000 37.80860 25.49583 13.29731 12.07269
336 100.0000 0.000000 38.82590 41.05752 21.51449 13.55345
337 76.08700 0.000000 0.000000 20.42188 10.87845 0.776669
338 83.84560 24.66980 0.000000 27.57271 17.21060 1.436513
339 100.0000 58.39840 0.000000 49.66027 41.68026 4.413568
340 100.0000 79.30730 0.000000 60.18732 62.01013 7.431187
341 41.20130 37.34730 26.35040 10.77972 11.52072 6.916493
342 45.23190 37.20280 51.93390 15.17258 13.51970 23.32453
343 60.86160 45.21210 54.73750 23.97751 21.05144 27.40130
344 68.05570 75.58840 62.87940 42.73343 48.96354 40.31286
345 0.000000 73.36760 28.46860 18.79586 34.47356 11.50679
346 0.000000 74.08680 48.87800 21.72132 36.43813 24.20415
347 0.000000 100.0000 50.43300 40.71282 72.60335 31.69784
348 66.98140 100.0000 50.58520 57.07028 81.59943 32.95475
349 85.45040 100.0000 66.40610 71.89307 89.09982 51.01062
350 87.20930 0.000000 0.000000 27.98860 14.88908 0.997615
351 86.80510 15.16490 20.82130 29.37829 16.63910 4.843070
352 87.12360 36.32350 51.58170 36.89057 24.89357 24.34513
353 90.73610 55.49850 80.65670 52.66250 40.64329 63.59182
354 67.11120 59.68200 68.67610 35.69749 34.13089 45.36222
355 68.05600 62.34880 84.11740 42.01502 38.53161 68.66510
356 68.42330 74.44160 88.16330 49.84242 50.93118 78.57205
357 79.93470 60.99080 0.000000 34.96956 35.39771 4.234956
358 88.55450 61.45830 28.03550 42.85670 40.05818 10.92329
359 88.85670 63.87220 72.94590 52.51203 45.69363 52.39789
360 88.75930 68.21980 86.63960 58.78506 51.52191 75.11295
361 13.36050 69.99370 88.37640 30.97830 37.44389 76.95992
362 11.26650 84.41130 90.88980 40.35197 54.41329 84.98124
363 28.15670 89.00210 100.0000 49.82314 63.94799 104.5904
364 0.000000 23.84780 57.26800 6.981051 5.427933 27.35479
365 27.67440 27.56430 57.52540 10.26572 8.060999 28.55055
366 51.44530 72.59610 57.67620 31.59661 40.63915 33.60142
367 24.34770 53.99720 14.05430 11.29293 18.52646 4.571632
368 51.92430 57.39330 12.82860 19.34868 24.70508 4.941571
369 69.90040 73.12200 24.02440 35.82524 43.70643 10.46348
370 100.0000 77.90700 28.32240 60.96737 61.49970 14.02202
371 30.47390 0.000000 54.96500 7.671855 3.518346 24.53316
372 49.53610 13.96560 63.30640 15.26555 8.302149 34.49843
373 68.26140 24.48550 69.14740 26.57965 15.68964 42.98439
374 48.18800 0.000000 48.68550 11.12322 5.496878 18.82546
375 63.49170 16.48470 51.84660 19.19305 10.95602 22.59017
376 72.66200 37.80290 65.42860 30.53527 21.50158 39.30745
377 46.62660 28.36740 71.69760 18.35674 12.07985 45.98540
378 53.27290 52.29090 82.95040 30.32838 26.53301 65.58323
379 58.88200 55.95770 100.0000 41.23547 33.72344 99.83861
380 26.29370 97.20610 86.50610 50.51124 73.73438 79.89923
381 43.78720 100.0000 100.0000 62.28483 82.41996 107.6271
382 0.000000 0.000000 0.000000 0.119936 0.116091 0.213954
383 13.98190 30.37120 26.75350 4.567415 6.101153 6.419334
384 88.48110 84.07150 63.50210 61.02065 66.09149 43.58763
385 88.91260 83.89330 75.21190 64.38430 67.65944 59.25163
386 28.76460 11.83760 25.62730 4.209356 2.888928 5.513118
387 37.51430 19.43670 27.18300 6.830525 5.184216 6.323710
388 39.27340 29.12990 27.30800 8.620393 7.982359 6.919617
389 39.96190 29.38120 38.25780 10.11835 8.770466 12.84875
390 71.67790 68.18580 37.82570 35.93244 40.39787 16.74563
391 89.74510 81.43120 42.32160 56.28947 61.96806 22.86656
392 100.0000 83.81770 69.23920 72.04585 71.94142 51.41782
393 0.000000 43.10350 0.000000 5.445689 10.43482 1.714019
394 0.000000 43.93180 72.47350 14.77664 14.94940 47.41291
395 19.67710 45.68540 82.29160 19.69014 18.02904 63.15490
396 25.38540 59.56140 87.19130 27.25983 28.88418 73.32874
397 42.94200 77.38550 91.71250 41.95433 48.88533 85.40952
398 0.000000 6.097600 0.000000 0.293557 0.455322 0.263208
399 0.000000 9.493700 0.000000 0.435632 0.729267 0.302944
400 33.44530 15.66980 10.06810 4.562057 3.552220 1.575512
401 48.00450 25.43890 25.80720 10.46532 8.222885 6.161277
402 63.76730 31.08140 46.70640 20.68951 14.69252 19.16104
403 77.78730 83.75970 53.37020 51.31246 61.18612 31.88282
404 80.43370 90.34950 70.96860 61.34580 72.19819 53.95565
405 100.0000 100.0000 71.70610 85.03806 95.92026 58.74882
406 21.42860 0.000000 0.000000 1.518780 0.859057 0.253236
407 26.11940 0.000000 0.000000 2.156389 1.196601 0.268433
408 39.60580 0.000000 28.77940 6.190241 3.185612 6.556530
409 49.10900 15.30720 36.19990 10.52565 6.468780 10.86749
410 51.30470 27.10100 48.14650 14.51221 10.46036 19.47383
411 51.44760 71.02660 68.98960 33.87952 40.67452 47.28097
412 60.55430 73.87510 100.0000 50.31602 50.03606 101.9184
413 86.48760 88.64390 100.0000 75.63709 77.36335 105.3933
414 0.000000 15.93490 24.09050 1.760851 2.018080 4.761523
415 0.000000 33.81270 48.84900 7.085185 8.089607 19.73281
416 0.000000 33.76250 80.81640 14.84692 11.28199 59.59309
417 73.86130 53.12410 85.47260 41.62184 32.90152 70.53895
END_DATA
CAL    

DESCRIPTOR "Argyll Device Calibration State"
ORIGINATOR "Argyll dispread"
CREATED "Thu Dec 06 10:38:20 2018"
DEVICE_CLASS "DISPLAY"
COLOR_REP "RGB"

BEGIN_ARGYLL_DISPCAL_ARGS
-v2 -ql -m -w0.3127,0.329 -gs -f1.0 -k0 -A4.0 -d1 -c1 -yn -P0.463114754098,0.411538461538,1.49720670391
END_ARGYLL_DISPCAL_ARGS


NUMBER_OF_FIELDS 4
BEGIN_DATA_FORMAT
RGB_I RGB_R RGB_G RGB_B
END_DATA_FORMAT

NUMBER_OF_SETS 256
BEGIN_DATA
0.00000000 0.00000000 0.00000000 0.00000000
0.00392157 0.02022760 0.01925420 0.01858230
0.00784314 0.03446140 0.03349750 0.03266170
0.01176470 0.04506650 0.04448010 0.04374870
0.01568630 0.05345450 0.05327320 0.05278870
0.01960780 0.06045670 0.06058090 0.06038220
0.02352940 0.06656950 0.06687190 0.06694290
0.02745100 0.07206490 0.07244810 0.07273580
0.03137250 0.07712670 0.07750210 0.07793970
0.03529410 0.08186140 0.08216680 0.08271280
0.03921570 0.08633570 0.08652840 0.08716090
0.04313730 0.09059530 0.09065010 0.09135010
0.04705880 0.09467500 0.09459110 0.09535380
0.05098040 0.09862220 0.09839640 0.09920850
0.05490200 0.10246800 0.10210800 0.10297100
0.05882350 0.10621800 0.10572900 0.10665100
0.06274510 0.10990100 0.10928500 0.11028100
0.06666670 0.11351300 0.11278000 0.11387100
0.07058820 0.11704400 0.11621300 0.11742100
0.07450980 0.12053000 0.11961400 0.12095700
0.07843140 0.12398000 0.12300200 0.12448600
0.08235290 0.12739600 0.12637600 0.12800800
0.08627450 0.13076800 0.12972400 0.13151500
0.09019610 0.13411200 0.13304800 0.13501400
0.09411760 0.13745500 0.13637900 0.13853200
0.09803920 0.14079900 0.13971700 0.14206800
0.10196100 0.14414100 0.14306000 0.14561900
0.10588200 0.14746400 0.14639500 0.14916600
0.10980400 0.15076100 0.14971300 0.15270700
0.11372500 0.15404300 0.15301900 0.15624400
0.11764700 0.15732900 0.15633300 0.15978400
0.12156900 0.16062800 0.15966000 0.16333900
0.12549000 0.16393900 0.16300500 0.16691500
0.12941200 0.16726700 0.16636700 0.17050800
0.13333300 0.17060400 0.16974000 0.17409800
0.13725500 0.17393700 0.17310400 0.17768500
0.14117600 0.17727400 0.17646300 0.18128400
0.14509800 0.18062700 0.17983000 0.18489900
0.14902000 0.18398900 0.18320200 0.18850300
0.15294100 0.18736500 0.18657300 0.19212000
0.15686300 0.19077400 0.18997100 0.19576100
0.16078400 0.19421600 0.19340100 0.19942600
0.16470600 0.19769100 0.19686300 0.20312100
0.16862700 0.20121400 0.20036600 0.20682600
0.17254900 0.20475200 0.20389600 0.21050500
0.17647100 0.20828800 0.20742200 0.21415300
0.18039200 0.21182000 0.21094200 0.21777300
0.18431400 0.21536400 0.21446100 0.22137100
0.18823500 0.21893900 0.21799400 0.22494600
0.19215700 0.22254200 0.22154000 0.22849000
0.19607800 0.22614200 0.22509000 0.23198200
0.20000000 0.22972300 0.22861600 0.23544800
0.20392200 0.23330900 0.23213800 0.23890200
0.20784300 0.23691300 0.23567800 0.24236000
0.21176500 0.24053500 0.23924000 0.24583200
0.21568600 0.24417400 0.24282300 0.24931900
0.21960800 0.24783600 0.24642700 0.25284100
0.22352900 0.25154100 0.25007200 0.25639500
0.22745100 0.25525200 0.25374400 0.25994700
0.23137300 0.25893800 0.25739600 0.26349600
0.23529400 0.26260000 0.26102500 0.26705400
0.23921600 0.26624900 0.26464300 0.27062000
0.24313700 0.26987200 0.26824400 0.27420200
0.24705900 0.27349500 0.27184300 0.27782700
0.25098000 0.27712200 0.27546100 0.28149300
0.25490200 0.28077400 0.27910500 0.28519700
0.25882400 0.28445300 0.28277800 0.28893100
0.26274500 0.28812400 0.28647100 0.29264800
0.26666700 0.29174200 0.29014500 0.29631700
0.27058800 0.29531400 0.29377200 0.29996200
0.27451000 0.29888100 0.29738000 0.30362900
0.27843100 0.30245900 0.30100400 0.30732300
0.28235300 0.30605100 0.30464200 0.31103300
0.28627500 0.30963400 0.30828200 0.31472800
0.29019600 0.31321700 0.31190700 0.31841300
0.29411800 0.31679500 0.31553000 0.32208300
0.29803900 0.32037900 0.31914800 0.32576300
0.30196100 0.32397400 0.32277400 0.32945500
0.30588200 0.32758200 0.32640800 0.33317100
0.30980400 0.33123400 0.33006600 0.33694600
0.31372500 0.33493400 0.33377700 0.34075400
0.31764700 0.33863800 0.33750800 0.34455500
0.32156900 0.34231800 0.34121900 0.34834600
0.32549000 0.34597100 0.34490800 0.35212900
0.32941200 0.34959900 0.34857600 0.35590600
0.33333300 0.35319600 0.35222800 0.35967100
0.33725500 0.35676900 0.35586100 0.36343800
0.34117600 0.36034300 0.35949800 0.36720000
0.34509800 0.36390500 0.36313300 0.37092000
0.34902000 0.36743100 0.36673300 0.37461700
0.35294100 0.37095800 0.37031800 0.37832400
0.35686300 0.37451600 0.37392900 0.38204100
0.36078400 0.37809500 0.37755600 0.38577100
0.36470600 0.38169600 0.38120100 0.38955000
0.36862700 0.38534200 0.38489300 0.39338900
0.37254900 0.38905200 0.38864400 0.39728800
0.37647100 0.39284300 0.39245800 0.40125100
0.38039200 0.39671700 0.39633600 0.40523100
0.38431400 0.40061100 0.40024000 0.40915900
0.38823500 0.40444800 0.40409100 0.41301000
0.39215700 0.40821400 0.40785700 0.41679800
0.39607800 0.41193500 0.41155200 0.42054800
0.40000000 0.41563900 0.41520000 0.42426100
0.40392200 0.41932700 0.41881400 0.42793000
0.40784300 0.42299800 0.42238600 0.43159200
0.41176500 0.42669100 0.42595600 0.43524300
0.41568600 0.43038700 0.42951600 0.43888700
0.41960800 0.43408000 0.43305900 0.44253500
0.42352900 0.43778500 0.43659900 0.44619000
0.42745100 0.44151300 0.44015100 0.44983500
0.43137300 0.44522900 0.44370800 0.45344500
0.43529400 0.44890700 0.44723500 0.45703700
0.43921600 0.45256600 0.45073900 0.46064300
0.44313700 0.45623000 0.45425700 0.46426300
0.44705900 0.45989700 0.45779800 0.46786300
0.45098000 0.46354100 0.46134000 0.47145200
0.45490200 0.46717900 0.46487900 0.47502400
0.45882400 0.47079500 0.46842200 0.47858600
0.46274500 0.47439600 0.47196300 0.48214100
0.46666700 0.47798300 0.47551200 0.48569000
0.47058800 0.48155300 0.47906400 0.48922800
0.47451000 0.48510700 0.48262000 0.49276600
0.47843100 0.48865600 0.48618500 0.49631000
0.48235300 0.49220500 0.48976800 0.49988600
0.48627500 0.49580300 0.49339300 0.50354700
0.49019600 0.49948800 0.49711200 0.50724400
0.49411800 0.50319000 0.50087900 0.51095100
0.49803900 0.50690200 0.50464500 0.51466800
0.50196100 0.51062600 0.50841100 0.51839500
0.50588200 0.51436200 0.51217600 0.52213500
0.50980400 0.51811400 0.51594100 0.52588700
0.51372500 0.52188300 0.51970600 0.52965000
0.51764700 0.52566000 0.52347200 0.53341500
0.52156900 0.52946200 0.52723100 0.53718300
0.52549000 0.53327000 0.53098900 0.54094400
0.52941200 0.53710100 0.53473100 0.54473600
0.53333300 0.54096900 0.53848600 0.54856100
0.53725500 0.54484100 0.54225900 0.55237400
0.54117600 0.54871000 0.54601100 0.55617700
0.54509800 0.55260900 0.54974600 0.56000300
0.54902000 0.55653500 0.55349600 0.56386000
0.55294100 0.56049200 0.55726400 0.56776300
0.55686300 0.56450400 0.56106700 0.57171800
0.56078400 0.56855900 0.56491500 0.57569500
0.56470600 0.57256500 0.56879500 0.57962700
0.56862700 0.57651700 0.57263900 0.58352300
0.57254900 0.58044600 0.57644100 0.58741800
0.57647100 0.58436800 0.58022700 0.59132200
0.58039200 0.58826500 0.58401400 0.59522700
0.58431400 0.59213600 0.58778800 0.59913300
0.58823500 0.59601100 0.59154600 0.60307000
0.59215700 0.59987800 0.59530800 0.60700700
0.59607800 0.60371900 0.59907500 0.61093800
0.60000000 0.60753400 0.60282700 0.61486700
0.60392200 0.61133700 0.60656600 0.61878700
0.60784300 0.61509900 0.61029600 0.62266000
0.61176500 0.61881700 0.61399300 0.62648200
0.61568600 0.62252100 0.61764500 0.63027800
0.61960800 0.62622700 0.62126300 0.63405900
0.62352900 0.62992400 0.62487700 0.63781500
0.62745100 0.63362400 0.62848400 0.64157800
0.63137300 0.63734300 0.63208300 0.64537200
0.63529400 0.64111100 0.63570900 0.64921800
0.63921600 0.64496400 0.63937500 0.65313400
0.64313700 0.64893000 0.64310800 0.65712800
0.64705900 0.65303100 0.64693000 0.66120600
0.65098000 0.65727700 0.65085200 0.66537300
0.65490200 0.66166500 0.65488000 0.66962200
0.65882400 0.66601400 0.65901800 0.67382800
0.66274500 0.67021000 0.66323600 0.67789300
0.66666700 0.67425300 0.66736000 0.68181500
0.67058800 0.67815800 0.67135100 0.68560300
0.67451000 0.68195800 0.67521600 0.68927900
0.67843100 0.68568200 0.67896400 0.69286300
0.68235300 0.68935600 0.68261900 0.69638100
0.68627500 0.69298600 0.68620800 0.69985700
0.69019600 0.69660800 0.68976200 0.70332600
0.69411800 0.70022900 0.69329300 0.70681200
0.69803900 0.70383400 0.69684100 0.71030900
0.70196100 0.70744000 0.70040900 0.71381700
0.70588200 0.71107300 0.70398600 0.71737400
0.70980400 0.71471600 0.70760900 0.72097700
0.71372500 0.71837600 0.71128400 0.72462700
0.71764700 0.72206400 0.71500100 0.72833000
0.72156900 0.72574400 0.71876500 0.73205800
0.72549000 0.72942500 0.72257000 0.73579100
0.72941200 0.73311000 0.72637900 0.73953900
0.73333300 0.73679300 0.73020300 0.74328800
0.73725500 0.74047700 0.73404000 0.74703200
0.74117600 0.74418800 0.73788200 0.75079400
0.74509800 0.74790300 0.74174100 0.75458600
0.74902000 0.75161000 0.74563300 0.75838700
0.75294100 0.75530900 0.74951900 0.76219600
0.75686300 0.75900100 0.75339500 0.76600400
0.76078400 0.76270600 0.75726200 0.76981800
0.76470600 0.76640100 0.76113100 0.77363400
0.76862700 0.77008300 0.76499900 0.77742000
0.77254900 0.77377500 0.76883700 0.78118900
0.77647100 0.77747700 0.77266000 0.78497500
0.78039200 0.78120500 0.77649400 0.78878800
0.78431400 0.78499400 0.78034700 0.79265000
0.78823500 0.78887100 0.78425400 0.79658700
0.79215700 0.79284100 0.78823600 0.80061000
0.79607800 0.79680400 0.79230000 0.80467100
0.80000000 0.80069300 0.79637800 0.80866900
0.80392200 0.80451700 0.80037400 0.81260500
0.80784300 0.80829800 0.80428700 0.81649000
0.81176500 0.81205700 0.80813600 0.82033700
0.81568600 0.81581700 0.81194500 0.82418600
0.81960800 0.81956200 0.81575200 0.82804300
0.82352900 0.82328300 0.81954900 0.83189700
0.82745100 0.82698800 0.82332500 0.83575200
0.83137300 0.83070100 0.82708600 0.83962100
0.83529400 0.83442400 0.83084500 0.84349500
0.83921600 0.83814700 0.83460400 0.84735600
0.84313700 0.84188300 0.83835200 0.85122100
0.84705900 0.84565000 0.84211100 0.85511600
0.85098000 0.84945700 0.84590000 0.85904400
0.85490200 0.85324900 0.84972500 0.86295200
0.85882400 0.85697200 0.85353400 0.86679400
0.86274500 0.86064000 0.85728300 0.87058000
0.86666700 0.86427100 0.86098200 0.87432500
0.87058800 0.86786500 0.86464800 0.87804400
0.87451000 0.87145400 0.86829100 0.88176400
0.87843100 0.87504800 0.87194400 0.88549300
0.88235300 0.87866400 0.87561000 0.88924400
0.88627500 0.88230300 0.87930300 0.89300000
0.89019600 0.88591000 0.88301000 0.89673300
0.89411800 0.88948500 0.88669400 0.90045800
0.89803900 0.89304400 0.89036500 0.90421500
0.90196100 0.89662200 0.89405000 0.90803200
0.90588200 0.90023000 0.89777700 0.91190200
0.90980400 0.90384400 0.90154400 0.91578200
0.91372500 0.90744500 0.90531200 0.91967000
0.91764700 0.91105000 0.90907500 0.92358600
0.92156900 0.91467500 0.91285700 0.92750900
0.92549000 0.91829900 0.91665400 0.93140800
0.92941200 0.92192100 0.92044000 0.93530400
0.93333300 0.92557400 0.92423900 0.93918200
0.93725500 0.92924100 0.92804600 0.94304500
0.94117600 0.93293300 0.93186300 0.94688600
0.94509800 0.93663900 0.93569500 0.95069900
0.94902000 0.94036400 0.93953600 0.95447000
0.95294100 0.94410200 0.94337700 0.95820000
0.95686300 0.94785400 0.94722100 0.96189300
0.96078400 0.95162200 0.95107300 0.96556100
0.96470600 0.95540700 0.95493400 0.96920700
0.96862700 0.95920500 0.95880200 0.97283500
0.97254900 0.96301600 0.96267700 0.97644500
0.97647100 0.96683700 0.96655900 0.98003800
0.98039200 0.97067100 0.97044700 0.98361400
0.98431400 0.97451600 0.97434100 0.98717200
0.98823500 0.97837300 0.97824200 0.99071300
0.99215700 0.98224200 0.98215000 0.99423800
0.99607800 0.98612200 0.98606500 0.99774600
1.00000000 0.99001500 0.98998600 1.00000000
END_DATA
