CTI3   

DESCRIPTOR "Argyll Calibration Target chart information 3"
ORIGINATOR "Argyll dispread"
CREATED "Tue May 26 09:59:04 2020"
DEVICE_CLASS "DISPLAY"
SINGLE_DIM_STEPS "25"
COMP_GREY_STEPS "73"
DARK_REGION_EMPHASIS "1.6"
COLOR_REP "RGB_XYZ"
TARGET_INSTRUMENT "X-Rite i1 DisplayPro, ColorMunki Display"
DISPLAY_TYPE_REFRESH "NO"
INSTRUMENT_TYPE_SPECTRAL "NO"
LUMINANCE_XYZ_CDM2 "308.264173 323.896191 356.632675"
NORMALIZED_TO_Y_100 "YES"
VIDEO_LUT_CALIBRATION_POSSIBLE "YES"

BEGIN_ARGYLL_COLPROF_ARGS
-v -qh -aX -bn -C "No copyright. Created with DisplayCAL 3.8.9.3 and ArgyllCMS 2.1.2" -M "LP123WQ112604" -A "LG Display"
END_ARGYLL_COLPROF_ARGS

OBSERVER "1931_2"
USE_BLACK_POINT_COMPENSATION "NO"
BLACK_POINT_CORRECTION "0.0"
HIRES_B2A "YES"
HIRES_B2A_SIZE "-1"
SMOOTH_B2A "YES"
PATCH_SEQUENCE "OPTIMIZE_DISPLAY_RESPONSE_DELAY"

NUMBER_OF_FIELDS 7
BEGIN_DATA_FORMAT
SAMPLE_ID RGB_R RGB_G RGB_B XYZ_X XYZ_Y XYZ_Z
END_DATA_FORMAT

NUMBER_OF_SETS 825
BEGIN_DATA
1 100.00000 100.00000 100.00000 95.173760 100.00000 110.10710
2 1.9608000 1.9608000 1.9608000 0.1475763 0.1543837 0.1581264
3 3.9216000 3.9216000 3.9216000 0.3759977 0.3865992 0.4471554
4 5.8824000 5.8824000 5.8824000 0.5263953 0.5558375 0.6073053
5 9.8039000 9.8039000 9.8039000 1.0677406 1.1359565 1.2022172
6 13.726000 13.726000 13.726000 1.6922135 1.7947527 1.9412828
7 17.647000 17.647000 17.647000 2.4500212 2.5494891 2.9623160
8 21.569000 21.569000 21.569000 3.6439797 3.8449605 4.1550135
9 25.490000 25.490000 25.490000 4.9260232 5.2059850 5.5968796
10 29.412000 29.412000 29.412000 6.5994573 7.0224703 7.5589638
11 33.333000 33.333000 33.333000 8.4870408 8.9251578 9.9315831
12 37.255000 37.255000 37.255000 10.675886 11.341338 12.072381
13 41.176000 41.176000 41.176000 12.993800 13.701002 15.147667
14 45.098000 45.098000 45.098000 16.116556 17.057509 18.449843
15 49.020000 49.020000 49.020000 18.996931 20.156574 22.296890
16 52.941000 52.941000 52.941000 22.734358 23.996881 26.365517
17 56.863000 56.863000 56.863000 26.635245 28.227579 30.439255
18 60.784000 60.784000 60.784000 30.617282 32.048206 35.269703
19 64.706000 64.706000 64.706000 35.161900 36.990615 40.660273
20 68.627000 68.627000 68.627000 40.998731 43.189766 47.205635
21 72.549000 72.549000 72.549000 45.926990 48.336776 53.251086
22 76.471000 76.471000 76.471000 51.450090 53.896226 59.679318
23 80.392000 80.392000 80.392000 57.550471 60.397068 66.445570
24 84.314000 84.314000 84.314000 64.066383 67.229370 74.305885
25 88.235000 88.235000 88.235000 70.919676 74.374913 82.605010
26 92.157000 92.157000 92.157000 78.631350 82.663768 92.171537
27 96.078000 96.078000 96.078000 87.312686 91.668935 101.35658
28 0.0000000 71.125200 59.959200 24.096470 37.091365 35.805684
29 34.765600 72.909400 66.047000 26.577865 39.855420 42.839467
30 0.0000000 58.286200 67.974200 20.033213 25.138573 47.528296
31 35.853900 67.939200 74.200600 26.941585 35.042831 58.090015
32 100.00000 75.471800 77.457300 73.509080 63.387563 61.649382
33 26.505800 9.3803000 0.0000000 2.6569274 1.9156930 0.2926061
34 42.729000 13.015600 0.0000000 6.7645654 4.2575092 0.4505859
35 51.733200 22.972000 0.0000000 12.028958 8.0083871 0.8449276
36 58.682700 30.066000 26.075200 16.227426 12.015199 6.4837369
37 6.0976000 0.0000000 0.0000000 0.3886763 0.2405969 0.1240103
38 8.3333000 0.0000000 0.0000000 0.4762394 0.2848350 0.1306507
39 10.683800 0.0000000 0.0000000 0.6022254 0.3482741 0.1388580
40 13.157900 0.0000000 0.0000000 0.7440854 0.4201442 0.1470160
41 15.765800 0.0000000 0.0000000 0.8704521 0.4838104 0.1531765
42 18.518500 0.0000000 0.0000000 1.1551128 0.6278666 0.1649273
43 21.428600 0.0000000 0.0000000 1.4875020 0.7957999 0.1773169
44 24.509800 0.0000000 0.0000000 1.8271702 0.9677062 0.1870247
45 27.777800 0.0000000 0.0000000 2.4641409 1.2899078 0.2048356
46 31.250000 0.0000000 0.0000000 3.1736574 1.6489625 0.2220457
47 34.946200 0.0000000 0.0000000 4.3314377 2.2346435 0.2523226
48 38.888900 0.0000000 0.0000000 5.7794410 2.9698979 0.2909154
49 43.103500 0.0000000 0.0000000 7.3129991 3.7442603 0.3398873
50 47.619100 0.0000000 0.0000000 9.0591977 4.6286229 0.3898812
51 52.469100 0.0000000 0.0000000 11.070596 5.6473158 0.4638148
52 57.692300 0.0000000 0.0000000 13.825002 7.0416983 0.5664060
53 63.333300 0.0000000 0.0000000 16.412496 8.3489717 0.6509662
54 69.444400 0.0000000 0.0000000 20.370303 10.351826 0.8389605
55 76.087000 0.0000000 0.0000000 25.049642 12.719801 1.0761910
56 83.333300 0.0000000 0.0000000 29.823251 15.134185 1.2960874
57 88.102200 31.245200 22.908500 35.215921 21.748257 6.0968521
58 100.00000 40.977800 31.918100 49.823127 31.801066 10.191058
59 100.00000 57.719200 37.577800 53.842005 42.202465 15.640698
60 100.00000 72.312100 46.921100 61.782499 55.598509 23.897233
61 27.331800 25.808100 0.0000000 4.2453990 5.0065516 0.7350601
62 44.310200 30.254500 0.0000000 9.7521221 8.5941622 1.0968640
63 0.0000000 0.0000000 0.0000000 0.0817871 0.0858812 0.0940168
64 3.9683000 0.0000000 0.0000000 0.2615490 0.1766278 0.1132551
65 1.9380000 0.0000000 0.0000000 0.1410514 0.1159437 0.1009407
66 0.0000000 6.0976000 0.0000000 0.2890605 0.4846344 0.1862878
67 0.0000000 13.157900 0.0000000 0.7514028 1.3814310 0.3147886
68 0.0000000 24.509800 0.0000000 1.9348606 3.6702672 0.6261745
69 0.0000000 27.777800 0.0000000 2.4943708 4.7200371 0.7793950
70 0.0000000 31.250000 0.0000000 3.1222950 5.9688664 0.9674397
71 0.0000000 34.946200 0.0000000 3.8265603 7.2812948 1.1750882
72 0.0000000 38.888900 0.0000000 4.9440673 9.4527457 1.5386528
73 0.0000000 43.103500 0.0000000 6.1869886 11.830429 1.9812776
74 0.0000000 47.619100 0.0000000 7.5087670 14.348464 2.4126514
75 0.0000000 52.469100 0.0000000 9.2740612 17.735620 3.0150775
76 0.0000000 57.692300 0.0000000 11.375987 21.740127 3.6705587
77 0.0000000 63.333300 0.0000000 13.966082 26.701006 4.5364633
78 0.0000000 69.444400 0.0000000 17.411968 33.322408 5.6418583
79 0.0000000 76.087000 0.0000000 21.207095 40.616822 6.8583245
80 0.0000000 83.333300 0.0000000 26.011114 49.852298 8.2703011
81 61.702800 100.00000 0.0000000 41.056671 76.892778 12.487002
82 80.362400 100.00000 0.0000000 54.220025 83.055129 12.875403
83 0.0000000 0.0000000 1.9380000 0.0932006 0.0908811 0.1545635
84 0.0000000 0.0000000 3.9683000 0.1449742 0.1124297 0.4135024
85 0.0000000 0.0000000 6.0976000 0.1908043 0.1312917 0.6433536
86 0.0000000 0.0000000 8.3333000 0.2372666 0.1506497 0.8808864
87 0.0000000 0.0000000 10.683800 0.3329166 0.1906948 1.3529560
88 0.0000000 0.0000000 13.157900 0.4055621 0.2207259 1.7076920
89 0.0000000 0.0000000 15.765800 0.5028133 0.2615109 2.1961638
90 0.0000000 0.0000000 18.518500 0.7138430 0.3494321 3.2500106
91 0.0000000 0.0000000 21.428600 0.9797557 0.4600783 4.5810850
92 0.0000000 0.0000000 24.509800 1.2462610 0.5723965 5.9104918
93 0.0000000 0.0000000 27.777800 1.5625472 0.7041628 7.4939292
94 0.0000000 0.0000000 31.250000 1.8940132 0.8422520 9.1500328
95 0.0000000 0.0000000 34.946200 2.3905961 1.0493164 11.626248
96 0.0000000 0.0000000 38.888900 2.9179402 1.2698488 14.257366
97 0.0000000 0.0000000 43.103500 3.6006314 1.5579723 17.653656
98 0.0000000 0.0000000 47.619100 4.4302676 1.9082070 21.815401
99 0.0000000 0.0000000 52.469100 5.3236304 2.2845806 26.250228
100 0.0000000 0.0000000 57.692300 6.5693655 2.8059106 32.436601
101 0.0000000 0.0000000 63.333300 8.0772851 3.4445998 39.936844
102 0.0000000 0.0000000 69.444400 9.8947671 4.2171202 48.915144
103 0.0000000 0.0000000 76.087000 12.031858 5.1412819 59.536134
104 0.0000000 0.0000000 83.333300 14.686063 6.2810009 72.620501
105 0.0000000 19.551200 79.899100 14.009802 7.5345862 64.541897
106 17.473100 41.948800 91.497000 23.054878 17.654200 89.930973
107 27.627400 51.036700 100.00000 29.870161 25.217273 103.13609
108 53.417100 64.257800 100.00000 42.584734 39.612840 104.66679
109 70.036100 79.151300 100.00000 58.043192 59.004215 106.85759
110 2.6042000 2.6042000 2.6042000 0.2179748 0.2265749 0.2526224
111 3.2808000 3.2808000 3.2808000 0.2539482 0.2596819 0.3185888
112 3.9683000 3.9683000 3.9683000 0.3753625 0.3859352 0.4484193
113 4.6667000 4.6667000 4.6667000 0.4161767 0.4383733 0.4853802
114 5.3763000 5.3763000 5.3763000 0.4812572 0.5322264 0.6059544
115 6.0976000 6.0976000 6.0976000 0.5689162 0.5961826 0.6856180
116 6.8306000 6.8306000 6.8306000 0.5793448 0.6232616 0.7391918
117 7.5758000 7.5758000 7.5758000 0.6999138 0.7361338 0.8369170
118 8.3333000 8.3333000 8.3333000 0.7977998 0.8364990 0.9504422
119 9.1036000 9.1036000 9.1036000 0.9116091 0.9844043 1.1212886
120 9.8870000 9.8870000 9.8870000 1.0603743 1.1283885 1.2010214
121 10.683800 10.683800 10.683800 1.1437194 1.2002477 1.3832682
122 11.494200 11.494200 11.494200 1.3257665 1.4041730 1.5410967
123 12.318800 12.318800 12.318800 1.4041868 1.4792872 1.6819140
124 13.157900 13.157900 13.157900 1.6069722 1.7455347 1.8607154
125 14.011800 14.011800 14.011800 1.7529923 1.8611489 2.0197860
126 14.881000 14.881000 14.881000 1.9149178 2.0355702 2.1962319
127 15.765800 15.765800 15.765800 1.9942981 2.1196203 2.2914154
128 16.666700 16.666700 16.666700 2.2679841 2.4026959 2.6548827
129 17.584100 17.584100 17.584100 2.4287041 2.5272941 2.9536466
130 18.518500 18.518500 18.518500 2.6724476 2.8119516 3.0812494
131 19.470400 19.470400 19.470400 2.9902090 3.1943043 3.5272061
132 20.440200 20.440200 20.440200 3.1690105 3.3404826 3.6422648
133 21.428600 21.428600 21.428600 3.5988646 3.8035324 4.1396791
134 22.435900 22.435900 22.435900 3.8251131 4.0447259 4.5269294
135 23.462800 23.462800 23.462800 4.2053029 4.4492226 4.8291228
136 24.509800 24.509800 24.509800 4.4466923 4.7129671 5.2488072
137 25.577600 25.577600 25.577600 4.8578151 5.1555019 5.5709905
138 26.666700 26.666700 26.666700 5.2941849 5.6014567 6.2148550
139 27.777800 27.777800 27.777800 5.9049280 6.1629817 6.9151974
140 28.911600 28.911600 28.911600 6.2786117 6.6406156 7.3091653
141 30.068700 30.068700 30.068700 6.9250419 7.2462177 8.0913327
142 31.250000 31.250000 31.250000 7.3540507 7.7776657 8.5328116
143 32.456100 32.456100 32.456100 7.8630086 8.2318605 9.1793418
144 33.687900 33.687900 33.687900 8.6195230 9.0678980 10.136438
145 34.946200 34.946200 34.946200 9.1163269 9.5645539 10.642388
146 36.231900 36.231900 36.231900 9.8024572 10.422936 11.439410
147 37.545800 37.545800 37.545800 10.796816 11.318168 12.539412
148 38.888900 38.888900 38.888900 11.476937 12.090610 13.476664
149 40.262200 40.262200 40.262200 12.553079 13.261472 14.745076
150 41.666700 41.666700 41.666700 13.267460 14.117523 15.464247
151 43.103500 43.103500 43.103500 14.610643 15.489556 16.842630
152 44.573600 44.573600 44.573600 15.491585 16.467478 18.000342
153 46.078400 46.078400 46.078400 16.516896 17.572330 19.158594
154 47.619100 47.619100 47.619100 17.828479 18.839392 20.809437
155 49.196800 49.196800 49.196800 18.820181 19.971114 22.187770
156 50.813000 50.813000 50.813000 20.708554 21.850507 24.171453
157 52.469100 52.469100 52.469100 22.063337 23.302880 25.770346
158 54.166700 54.166700 54.166700 23.679199 24.888613 27.368459
159 55.907200 55.907200 55.907200 25.495383 26.919687 29.684583
160 57.692300 57.692300 57.692300 27.055476 28.289189 31.443816
161 59.523800 59.523800 59.523800 29.393020 30.986724 34.587622
162 61.403500 61.403500 61.403500 31.305723 32.897448 36.516786
163 63.333300 63.333300 63.333300 32.993797 34.728771 39.159620
164 65.315300 65.315300 65.315300 36.164732 38.030087 42.030186
165 67.351600 67.351600 67.351600 38.730907 40.758512 44.897751
166 69.444400 69.444400 69.444400 41.537172 43.645087 48.587188
167 71.596200 71.596200 71.596200 44.268077 46.547262 51.675073
168 73.809500 73.809500 73.809500 47.511913 49.741368 55.638711
169 76.087000 76.087000 76.087000 50.700899 53.381255 59.008397
170 78.431400 78.431400 78.431400 54.037645 56.707891 63.904846
171 80.845800 80.845800 80.845800 58.046142 60.914799 67.439162
172 83.333300 83.333300 83.333300 61.883009 65.078666 72.728302
173 85.897400 85.897400 85.897400 66.940818 70.366506 77.365340
174 88.541700 88.541700 88.541700 71.586827 75.036794 83.859252
175 91.269800 91.269800 91.269800 77.303467 80.818475 90.634234
176 0.0000000 48.267100 30.031400 8.7863493 14.873845 8.8077541
177 0.0000000 56.678700 54.419300 16.017836 23.026939 28.963352
178 0.0000000 70.195700 69.963100 26.559685 37.157065 51.064642
179 82.433100 24.303200 0.0000000 31.613014 17.190019 1.6062610
180 100.00000 23.686200 19.325700 46.183321 24.536912 4.2570558
181 80.243200 0.0000000 16.907000 29.465620 14.917455 3.4847774
182 78.964800 30.145500 43.362500 32.190845 18.963082 17.456151
183 79.964500 49.050000 57.050400 39.037048 29.402551 30.987436
184 56.210700 38.103600 34.827500 17.383408 14.692254 10.996379
185 74.227200 58.410800 36.181500 33.026287 31.913576 13.353523
186 90.712100 62.184000 68.907300 55.971888 45.225250 48.109027
187 100.00000 63.205700 100.00000 73.581021 54.939598 106.37229
188 65.023100 0.0000000 100.00000 35.689831 17.159459 100.56078
189 71.236600 25.429300 100.00000 40.638070 22.646519 102.13419
190 84.885400 45.509700 100.00000 53.786504 35.928313 103.47479
191 100.00000 47.164700 100.00000 67.702050 43.886148 103.99629
192 0.0000000 9.1476000 16.741900 0.9226166 0.9938213 2.5947986
193 0.0000000 20.684800 21.296000 2.1065311 2.9128528 4.0693669
194 0.0000000 21.617600 30.070000 2.9904092 3.4202367 8.0470224
195 0.0000000 73.870200 84.128800 33.024587 41.591393 78.025601
196 23.648400 80.702700 100.00000 42.336604 50.980431 107.50780
197 49.159800 82.361000 100.00000 50.159668 56.724471 108.00930
198 0.0000000 17.770100 100.00000 21.294695 10.749917 100.34748
199 0.0000000 29.020000 100.00000 22.912378 13.874863 100.76818
200 26.465500 70.821900 100.00000 37.632095 40.743482 105.18699
201 51.348700 74.454100 100.00000 46.482851 48.395426 105.92979
202 22.710800 8.9048000 17.360700 2.6546573 1.7755457 2.9157285
203 47.424600 25.411400 26.206400 10.782346 8.1384463 6.3092665
204 77.603100 47.288700 29.647800 30.520512 25.231134 10.008627
205 91.561800 65.352800 34.099200 48.984016 44.673599 13.115603
206 100.00000 100.00000 44.749900 76.222885 92.201086 22.031369
207 39.207100 55.835000 11.360500 12.844510 21.227066 3.5153064
208 58.951900 55.384400 12.698200 21.337855 24.354332 3.6846887
209 100.00000 84.532300 0.0000000 67.924040 68.740823 9.3991092
210 100.00000 84.248100 25.135800 67.617090 68.566323 9.4799403
211 0.0000000 91.269800 0.0000000 32.254095 61.867000 10.153968
212 0.0000000 100.00000 0.0000000 39.670449 76.116056 12.325542
213 36.855200 100.00000 0.0000000 39.670449 76.116056 12.325542
214 83.186200 100.00000 80.260300 70.270775 88.330969 68.830205
215 89.260000 100.00000 90.133500 79.912032 92.934017 87.042418
216 100.00000 100.00000 88.617400 89.692560 97.439855 84.647724
217 15.190500 7.5882000 38.291100 3.6102837 1.9488600 12.511235
218 23.077500 33.632000 49.342800 8.8263324 8.8195656 22.271840
219 49.787300 38.228500 48.632000 16.770417 14.179503 21.833289
220 49.907500 55.573000 48.960500 20.817394 24.358712 22.352860
221 80.215300 66.918400 58.355700 45.079349 43.787027 33.422260
222 100.00000 76.546000 66.225900 69.330233 62.646992 44.152630
223 92.527400 16.490400 39.316600 43.429946 21.810507 14.410395
224 100.00000 24.789700 48.618600 50.017408 26.642426 21.979209
225 100.00000 42.684100 55.880900 54.878106 34.619041 29.900784
226 0.0000000 1.9380000 0.0000000 0.1142133 0.1487237 0.1134842
227 14.283200 7.1562000 0.0000000 0.9998553 0.8723761 0.2183126
228 26.162700 43.003300 34.572900 8.5724159 12.687691 10.469488
229 39.085500 52.607900 47.569000 16.030476 20.561295 21.137078
230 45.100600 63.422800 66.808500 25.915014 31.338555 44.774321
231 51.941700 63.004300 81.029600 33.120317 33.924519 67.747033
232 72.350100 68.125600 100.00000 53.606254 48.480436 104.52829
233 51.499300 8.4495000 49.567200 14.652723 7.0580294 23.592412
234 51.466800 27.273400 50.544800 16.305386 10.704517 24.515364
235 75.430700 37.596700 62.555400 34.522149 21.925677 39.564401
236 31.060100 44.281900 26.624900 9.0060347 13.353062 6.7888794
237 32.069900 45.608700 62.057200 15.809065 16.469028 37.175157
238 49.609700 76.405300 66.498100 32.313195 45.128580 44.015699
239 86.482000 78.235700 100.00000 68.353291 63.718364 107.09039
240 100.00000 88.836900 100.00000 86.862115 83.342130 109.19310
241 60.471200 0.0000000 59.528500 21.623496 10.376236 35.896125
242 68.085300 0.0000000 80.973800 32.576916 15.404016 68.949685
243 89.477200 0.0000000 86.257900 52.011651 25.081453 82.311599
244 100.00000 0.0000000 100.00000 61.901399 30.862634 102.29579
245 69.316300 0.0000000 34.991800 23.096838 11.532289 11.898271
246 84.199000 0.0000000 48.645100 36.695033 18.231471 23.633952
247 79.972300 0.0000000 58.807500 34.882480 17.099149 35.636034
248 100.00000 0.0000000 66.167500 53.112893 26.202515 43.906269
249 62.156600 35.843900 0.0000000 18.981401 14.440454 1.7753523
250 100.00000 70.216300 0.0000000 59.847176 52.490013 6.8531565
251 100.00000 72.238600 27.600900 61.244438 55.073188 8.8064071
252 31.243300 67.131100 0.0000000 16.001805 30.587033 5.2199645
253 54.196600 83.525900 0.0000000 28.711079 51.151851 8.4259054
254 100.00000 100.00000 0.0000000 73.673711 91.602865 13.448904
255 100.00000 100.00000 24.860300 74.094062 91.817495 13.392833
256 0.0000000 52.895400 81.485700 22.320467 22.350528 70.573148
257 0.0000000 61.586500 100.00000 32.407965 32.005616 104.16029
258 29.835800 61.415800 100.00000 33.986248 32.806187 104.21029
259 11.328800 20.176500 38.822100 4.1145073 3.5185889 13.356153
260 27.837200 20.377700 50.523500 8.2377043 5.5539796 23.205780
261 62.126800 51.018800 69.656100 30.462982 26.346626 48.517498
262 73.648800 50.667600 78.189900 40.518680 30.718324 62.884624
263 0.6361000 0.6361000 0.6361000 0.0887539 0.0936128 0.1023008
264 1.2821000 1.2821000 1.2821000 0.1007450 0.1057727 0.1115054
265 1.9380000 1.9380000 1.9380000 0.1475206 0.1542827 0.1589958
266 0.0000000 10.776900 10.786800 0.7483712 0.9952013 1.5002992
267 15.775400 12.595400 24.504100 2.3351931 1.9264000 5.0503043
268 30.399900 100.00000 66.081000 45.933280 78.166560 45.273042
269 58.705000 100.00000 78.944500 53.717554 81.238176 64.740517
270 69.124200 100.00000 89.340400 63.137352 85.682764 84.267673
271 0.0000000 61.285000 45.115600 15.685785 25.556844 18.985944
272 0.0000000 82.445000 54.698400 29.394360 49.684338 29.942734
273 0.0000000 85.804800 72.972900 36.959824 56.898041 55.132600
274 0.0000000 100.00000 100.00000 56.884330 79.159742 111.24030
275 27.756700 100.00000 100.00000 56.708140 79.073832 110.25460
276 0.0000000 86.085500 100.00000 45.813670 57.697693 108.46430
277 22.923800 90.499700 100.00000 48.861645 63.555403 109.19120
278 50.271800 100.00000 100.00000 59.315535 80.398264 110.35620
279 0.0000000 14.927700 57.643000 6.9110576 4.0030778 30.865291
280 0.0000000 28.562900 74.157500 13.396731 9.1950763 55.483620
281 23.271200 11.710900 73.608700 12.793080 6.1071876 53.626376
282 53.633900 21.738400 100.00000 31.475704 17.086939 100.88548
283 90.241300 100.00000 100.00000 85.515412 94.335280 110.06810
284 100.00000 100.00000 100.00000 94.817339 99.609479 110.37830
285 0.0000000 35.989700 16.235800 4.4609584 7.9490790 3.0722846
286 54.847700 40.440600 29.317400 16.812027 15.498146 8.1232328
287 68.167700 41.276000 33.493000 23.835230 19.364983 10.906779
288 100.00000 47.673200 46.730700 53.512834 36.902685 21.356348
289 100.00000 26.631800 0.0000000 45.708410 24.379892 2.2179241
290 100.00000 43.362500 0.0000000 49.441737 31.522175 3.4414173
291 100.00000 57.672900 0.0000000 54.048525 40.656952 4.9833851
292 100.00000 60.537600 22.359600 55.154437 43.544317 6.5834310
293 100.00000 63.392300 53.444200 59.054594 48.086985 29.108932
294 11.133500 0.0000000 12.876400 0.9933401 0.5159254 1.8301612
295 25.026700 0.0000000 20.611700 3.1129370 1.5475353 4.1623397
296 25.399800 43.245000 81.171700 19.825522 16.853048 67.434932
297 40.479800 50.723600 89.613800 28.553078 24.512302 84.508743
298 77.542400 36.450400 0.0000000 29.561860 19.678183 2.2561011
299 82.039900 49.722800 0.0000000 36.277822 28.229379 3.5676125
300 0.0000000 100.00000 30.041300 39.601019 75.501935 13.849474
301 0.0000000 100.00000 53.127400 42.987555 76.915468 30.710735
302 0.0000000 100.00000 71.907100 47.689793 79.415502 52.507275
303 31.849400 100.00000 79.120700 50.029448 80.388114 64.003376
304 0.0000000 84.954000 85.846200 40.671991 56.436090 80.010645
305 0.0000000 100.00000 87.535100 53.386344 81.813007 80.810427
306 39.530900 100.00000 90.053800 54.271875 81.672997 86.769727
307 0.0000000 32.626200 24.909200 4.2584530 6.6634596 5.8247916
308 0.0000000 32.077400 35.196900 5.2234918 6.9515692 11.103749
309 0.0000000 44.749600 50.694500 10.884676 13.960113 24.806164
310 0.0000000 35.435200 49.432000 7.9683948 8.7276984 22.719120
311 0.0000000 36.677200 64.752700 11.967848 10.967417 40.957824
312 0.0000000 48.269700 66.128000 15.457974 16.960388 44.366790
313 0.0000000 3.9683000 0.0000000 0.2025035 0.3180600 0.1553299
314 0.0000000 15.765800 0.0000000 0.8775018 1.6243524 0.3502124
315 13.529500 21.170100 8.6250000 1.8946928 2.9149128 1.1188716
316 67.700700 28.024600 35.713500 22.553897 14.078413 11.567920
317 76.212500 33.714000 72.193200 36.879234 21.717417 53.997718
318 56.691000 23.959600 62.498000 20.949295 12.038139 38.729420
319 60.479300 28.308200 76.077000 27.029546 15.773056 58.887617
320 27.633400 0.0000000 60.504100 9.6856107 4.3405194 34.946924
321 39.368500 22.481000 63.904700 14.150422 8.6561063 38.532409
322 0.0000000 11.955600 27.595900 1.8337004 1.5673393 6.5388409
323 0.0000000 11.484600 38.677200 3.1285980 2.0623972 13.122137
324 0.0000000 85.625600 39.422800 29.070429 53.015934 17.568841
325 52.596100 100.00000 26.175400 39.294348 75.325885 12.425342
326 70.729100 100.00000 29.375600 47.604783 79.537533 12.947623
327 0.0000000 18.518500 0.0000000 1.1314933 2.1165753 0.4166038
328 0.0000000 21.428600 0.0000000 1.5123521 2.8548277 0.5168441
329 15.177900 22.247500 0.0000000 2.1259737 3.3020795 0.5589327
330 34.466000 29.978400 58.721300 12.406369 9.4734008 32.048118
331 48.372100 40.455300 63.836300 19.844632 16.480128 38.824210
332 68.345800 40.288600 100.00000 42.035413 27.720148 102.97679
333 84.885200 62.016800 100.00000 59.359125 47.291224 105.09309
334 100.00000 77.434000 100.00000 79.593242 68.466562 108.29870
335 31.137500 0.0000000 13.276800 3.9314431 1.9985051 2.1589103
336 36.063100 9.4971000 13.856100 5.1197120 3.0041500 2.0931061
337 46.189800 70.464800 33.050800 21.944916 35.801033 11.588710
338 60.552900 82.842700 33.129400 33.019907 51.787092 12.511152
339 68.628800 86.673700 56.593400 44.703308 61.140239 32.976779
340 86.564500 100.00000 66.307600 67.900690 88.024778 46.935365
341 100.00000 100.00000 78.308600 85.426842 95.492812 66.088880
342 22.123800 0.0000000 42.147700 4.9654010 2.2799966 15.898180
343 43.052500 0.0000000 53.100200 12.064428 5.6885179 26.448756
344 72.047100 70.472600 61.404700 40.896771 44.197658 37.152757
345 87.063300 74.681500 88.144100 62.723251 57.309942 82.439329
346 44.275500 0.0000000 14.379500 8.1720819 4.1402320 2.5144454
347 43.634600 22.336100 39.518000 10.809636 7.1934036 14.436565
348 41.114300 0.0000000 26.233200 7.6833719 3.8162324 6.7637119
349 54.027500 0.0000000 26.155400 13.132120 6.5782715 6.8966225
350 65.178800 16.191200 37.306700 20.226873 10.363746 12.624712
351 50.147900 0.0000000 39.105300 12.622209 6.1776197 14.833996
352 65.258400 0.0000000 44.505000 21.353955 10.522927 19.244054
353 100.00000 23.684100 64.447800 53.174593 27.465238 40.750393
354 100.00000 41.912100 67.224000 57.211151 34.897981 44.343300
355 100.00000 0.0000000 34.564100 46.818522 23.550750 11.989301
356 100.00000 0.0000000 49.509400 49.237326 24.572192 23.978483
357 0.0000000 8.3333000 0.0000000 0.3836263 0.6686007 0.2168627
358 0.0000000 10.683800 0.0000000 0.5204552 0.9333332 0.2567693
359 11.006500 12.241200 0.0000000 1.0145561 1.2982018 0.2874872
360 21.445000 15.750200 0.0000000 2.2936328 2.2489676 0.3716605
361 28.645300 43.052800 0.0000000 6.9662160 11.954219 1.9627346
362 37.178300 56.148400 73.965900 23.680330 25.140183 56.743863
363 0.0000000 0.0000000 91.269800 18.331910 7.8649228 90.741995
364 0.0000000 0.0000000 100.00000 20.550094 9.2984384 100.33018
365 0.0000000 39.057100 100.00000 25.115932 18.097161 101.47568
366 0.0000000 50.833100 100.00000 28.523958 24.704923 102.32139
367 0.0000000 73.145200 100.00000 37.980466 42.770056 105.65809
368 22.640300 70.148400 13.527700 17.586328 33.658909 5.6961974
369 26.638800 86.986300 17.794700 28.622099 54.865838 9.0236835
370 51.227100 100.00000 43.838800 40.851871 75.371775 22.051089
371 69.374800 100.00000 51.750600 51.273970 80.538624 29.578683
372 29.806500 21.786600 10.086800 4.4672233 4.2751143 1.4446464
373 29.394800 32.586500 20.946300 6.1016484 7.5036382 4.1352815
374 27.996400 55.593700 29.219800 11.257407 19.952744 8.4497094
375 0.0000000 54.592700 20.305900 10.177845 18.893162 5.1141184
376 0.0000000 75.655500 22.253500 21.002535 39.930550 7.6710180
377 45.630100 62.626800 0.0000000 17.123818 27.826538 4.6043934
378 64.667200 62.484000 0.0000000 26.355004 31.478465 4.8519489
379 73.990700 77.941700 32.212200 39.785799 50.695930 11.299420
380 66.896000 76.512200 76.013100 44.254877 49.964199 59.573538
381 66.111500 100.00000 100.00000 68.973792 85.216353 110.65370
382 79.414200 100.00000 100.00000 77.456568 89.515501 110.84670
383 31.123400 0.0000000 80.014300 16.131896 7.1294925 64.453496
384 48.491300 0.0000000 100.00000 28.286028 13.284472 100.52658
385 83.082900 0.0000000 100.00000 47.184992 23.250140 102.06439
386 91.269800 0.0000000 0.0000000 37.149094 18.850702 1.5968749
387 100.00000 0.0000000 0.0000000 44.312927 22.452058 1.8986625
388 100.00000 0.0000000 21.425400 45.470369 22.992469 5.4337659
389 100.00000 26.794700 36.625000 48.235744 26.277285 12.569582
390 100.00000 41.247900 81.723300 61.725659 36.435214 69.083565
391 100.00000 58.372100 85.903900 68.387601 48.112655 77.269690
392 29.018700 11.585400 28.492000 4.7099369 2.8637777 7.3050101
393 45.859300 20.135500 28.509600 9.8971073 6.3906101 7.2188961
394 73.215900 0.0000000 24.687300 24.606721 12.410800 6.1901443
395 86.870900 0.0000000 36.471800 37.105534 18.616131 13.279403
396 100.00000 0.0000000 82.484100 58.297163 28.418589 71.335689
397 100.00000 24.351200 82.205900 58.812254 30.089812 70.702298
398 100.00000 27.159400 100.00000 63.407912 35.135412 103.06759
399 34.760800 81.368400 65.857200 31.290773 49.424218 42.736897
400 58.313200 87.036500 70.514300 42.751374 60.310358 50.520541
401 85.971200 90.022700 100.00000 75.177193 77.829430 108.14070
402 27.771000 0.0000000 100.00000 22.388807 10.121886 100.37728
403 31.496900 21.766000 100.00000 24.464931 13.361352 100.79438
404 49.157600 51.778500 100.00000 35.473111 28.744960 102.58339
405 68.170800 55.193400 100.00000 46.149391 36.400494 103.19419
406 46.423900 49.900200 0.0000000 13.905732 18.424931 2.9103653
407 82.007600 64.814800 0.0000000 41.226892 39.700480 5.5912772
408 83.412700 81.783800 0.0000000 48.128454 58.569004 8.6737859
409 16.709100 66.865400 46.041500 18.955611 31.777375 20.155136
410 27.532100 77.558400 49.819900 25.243922 43.056506 24.557654
411 36.299000 90.764600 52.981800 34.602679 60.524718 29.035332
412 52.563600 100.00000 63.219300 45.299249 77.282079 41.538555
413 71.187800 100.00000 70.073800 57.509401 82.611018 51.896434
414 17.367500 33.698500 0.0000000 3.5989288 6.8696150 1.1248011
415 34.968600 36.343400 0.0000000 7.2978886 9.3918776 1.4365586
416 52.863700 42.883800 0.0000000 15.381654 15.505846 2.2261991
417 67.860900 50.443300 0.0000000 26.194504 24.147812 3.3790382
418 76.734800 68.230200 39.075500 39.541098 41.929384 15.264337
419 100.00000 85.371700 46.654100 69.690503 71.116657 22.987161
420 100.00000 86.276700 64.217700 73.356680 73.589832 41.891795
421 100.00000 88.049300 79.462100 79.459861 78.191720 65.956079
422 100.00000 88.132700 89.308200 83.285378 79.819573 84.898104
423 40.624200 43.825100 27.341100 11.724648 14.300414 7.0762969
424 51.683700 59.992500 42.797900 21.792626 27.600578 17.358781
425 61.819900 75.774200 59.881400 36.209862 46.254152 35.385134
426 94.086000 94.086000 94.086000 82.551347 86.874406 96.817256
427 35.666700 21.986800 86.476100 20.578164 11.112588 76.636139
428 35.775400 37.338300 86.336700 22.468707 15.929367 76.426809
429 0.0000000 41.440300 81.465700 18.642060 15.485486 68.849265
430 8.4788000 62.535200 89.406800 29.133829 30.806954 87.191998
431 40.190400 70.682900 89.361500 35.621141 40.225071 87.557929
432 40.879200 87.924800 88.458700 43.729396 60.694588 85.859096
433 21.238400 82.327000 81.823400 37.502065 52.525053 72.087671
434 16.899300 74.976700 69.692600 28.708509 41.778214 50.300581
435 13.818300 91.518700 73.119200 40.775321 64.762046 54.681199
436 16.581000 94.974400 88.246400 49.667917 73.007391 84.859984
437 15.553900 54.555100 60.744800 16.121626 20.788625 36.537866
438 49.931700 56.208800 68.092900 25.816083 26.679126 46.115123
439 72.588100 64.073900 86.483900 46.232161 40.997972 78.180442
440 85.908700 68.325600 91.034500 60.664187 51.406321 89.699613
441 65.077100 10.591600 53.648400 22.617048 11.013878 28.333611
442 95.070800 15.304300 53.350300 48.384365 24.082141 27.925400
443 80.316300 14.925200 44.051500 32.286635 16.079377 18.388623
444 98.552900 37.477400 45.544400 49.719347 30.092272 19.306104
445 88.916100 39.440500 38.066900 38.877847 26.382516 14.166555
446 90.093200 50.851200 41.786500 42.967425 33.421358 18.135182
447 89.823600 56.241700 54.007500 47.510613 38.003857 28.628901
448 100.00000 61.796700 64.285700 62.272470 48.136535 40.303343
449 39.797800 15.199200 29.934200 7.8724316 4.7618852 8.1969172
450 41.237900 25.877500 33.985500 9.4678366 7.3862219 9.9956552
451 66.694600 31.107100 44.314400 23.612199 15.109915 17.984862
452 31.059500 7.7815000 20.076400 4.2673849 2.3895578 3.8609996
453 48.052500 27.868900 19.501500 10.617826 8.5641031 4.1596346
454 56.221400 49.125300 44.899000 20.998795 20.824485 17.957142
455 64.852600 48.663000 45.758400 25.792813 23.002269 19.472025
456 66.144900 56.471100 59.510400 31.991465 30.005962 34.208841
457 70.604800 60.729400 69.334100 38.312566 35.456652 48.148627
458 78.586100 53.236300 23.340800 31.577074 28.333839 7.6115569
459 81.847100 65.755500 47.945000 43.416596 41.925704 21.901559
460 85.085200 75.358900 60.744500 52.856303 53.867976 36.305005
461 60.536600 59.560800 67.757100 31.771224 31.867536 45.259632
462 80.308800 67.913700 71.884700 48.814765 45.611331 51.985404
463 92.491500 76.938200 73.900300 64.469354 60.256857 55.676221
464 92.394000 86.137400 81.103200 71.214896 72.503230 68.638984
465 43.977800 39.851400 11.663700 10.889146 12.377870 2.1637540
466 61.478500 48.680700 15.361800 20.458924 20.355125 3.6104816
467 72.814800 58.320200 25.634500 30.539392 30.624023 8.0378117
468 17.997000 39.813700 17.679500 5.4931633 9.9370896 3.5012254
469 21.526500 47.435100 30.383500 8.5235958 14.427184 8.5526656
470 23.824300 47.795400 43.387300 10.423005 15.451726 17.332021
471 0.0000000 0.0000000 0.0000000 0.0821356 0.0862242 0.0949808
472 86.026900 23.607200 100.00000 50.479918 27.792338 102.65469
473 100.00000 100.00000 100.00000 94.635739 99.365049 110.54050
474 55.360300 39.077500 57.915200 21.355965 16.713268 32.124658
475 56.100700 43.335800 75.000200 27.078556 21.028486 56.681572
476 64.572400 43.449300 89.673300 36.879304 25.363614 84.257093
477 28.886400 10.914200 55.939200 8.9453945 4.6158399 29.152697
478 44.922100 16.457800 56.580800 13.807141 7.5484532 30.461355
479 85.081800 15.245000 57.555400 39.219208 19.333293 33.267060
480 92.585200 14.580300 69.162700 49.310436 24.172622 50.765682
481 10.689600 4.5152000 11.636200 0.9440468 0.6666047 1.5640792
482 18.571000 6.1655000 21.231600 2.1438352 1.2909018 4.0378970
483 34.265100 51.241500 20.848700 10.678056 17.465089 4.7751637
484 18.682000 53.459900 14.897100 9.4420665 17.912780 3.4597893
485 17.566700 69.835100 32.939800 18.475990 33.561919 11.590640
486 15.347300 83.409200 46.092800 28.685689 50.751270 22.244700
487 24.347300 86.156800 77.099300 38.333786 57.313712 62.520733
488 57.986900 89.900700 84.690600 48.362235 65.133606 76.896389
489 8.8392000 8.0313000 30.391400 2.1759068 1.3567149 7.7391850
490 24.924800 7.1650000 33.529200 4.2361459 2.2484726 9.6845586
491 32.144500 9.6450000 45.596400 7.4886816 3.9414407 18.527871
492 32.220300 66.887600 52.065800 19.783172 31.665925 25.677306
493 43.747000 77.918800 77.155200 33.749298 46.226692 62.648773
494 64.313500 83.130500 84.903900 48.955546 58.205184 78.296792
495 13.996100 52.916500 42.533200 11.887648 18.684472 16.496259
496 22.197800 57.116700 53.584200 15.591305 22.675349 27.318299
497 32.409000 63.135800 63.862800 20.449264 28.150479 40.564253
498 12.658100 37.203600 34.353200 6.1678955 9.0800890 10.411878
499 22.692400 43.908300 47.257100 10.228965 13.238092 21.513298
500 36.603200 54.479900 55.387800 17.100757 21.662357 29.199032
501 38.177400 62.441400 55.883300 20.079973 28.144229 30.102604
502 0.0000000 24.122300 53.965600 7.0706192 5.5396166 27.110467
503 14.583000 29.404800 59.130100 9.3229023 7.6520814 33.587210
504 28.204600 35.638500 61.357800 12.421109 10.980668 35.198853
505 86.680400 38.812400 60.565000 43.415866 26.447566 35.975435
506 87.837300 49.878100 66.076700 48.039854 33.428578 43.224188
507 0.0000000 0.0000000 0.0000000 0.0821688 0.0862922 0.0949878
508 9.1635000 4.8250000 22.123500 1.3138246 0.7466168 4.1016077
509 13.029700 10.796800 49.022600 5.2899458 2.8611867 21.439399
510 39.577200 9.8778000 66.719500 14.011472 6.7963749 42.171496
511 53.292200 12.422100 67.211400 19.314262 9.3945466 44.290540
512 89.381600 30.541500 69.292300 47.192402 25.408834 50.321251
513 75.028000 23.512200 60.547000 31.409304 16.560508 36.271845
514 91.359500 45.818300 73.376000 53.325704 33.960559 56.538932
515 100.00000 58.748100 73.668800 64.452314 47.012133 55.050880
516 49.855600 0.0000000 74.781000 20.249873 9.3210315 56.716403
517 76.215200 31.865100 85.810700 40.477350 22.785749 78.247562
518 67.074900 13.848300 74.128300 29.153839 14.047463 57.733934
519 68.693000 18.785600 86.811100 34.865970 17.325439 79.532214
520 22.085300 51.781500 77.954900 20.235343 20.536455 63.113464
521 22.022300 63.563600 83.926600 27.249916 30.648643 75.924328
522 25.910800 81.340200 87.601200 38.722227 51.060621 84.594203
523 68.393200 9.0821000 11.816000 20.021323 10.161506 1.9357776
524 74.773200 24.299700 10.527100 23.003948 13.857633 2.1560240
525 90.271100 43.236100 9.9036000 40.435850 27.496238 3.1569478
526 100.00000 44.578200 20.451200 49.978018 32.837067 4.7927418
527 100.00000 100.00000 62.607700 80.034522 93.577028 41.078554
528 0.0000000 65.605800 84.441600 28.570888 32.671137 77.862831
529 10.623300 75.253900 91.032500 37.039174 44.370008 94.739662
530 16.475600 5.6648000 9.5322000 1.3929085 0.9184381 1.1996300
531 26.360900 7.4016000 8.7758000 2.7586146 1.7448877 1.1365565
532 46.349500 27.953700 9.3001000 9.4697976 7.8409518 1.6741481
533 46.637400 79.139800 14.162100 23.443089 44.127988 7.3885865
534 64.709100 91.088100 13.840900 37.831315 63.470553 10.127128
535 86.058800 100.00000 23.870300 58.890354 84.595672 12.900673
536 85.407400 100.00000 47.454000 61.461038 85.026263 24.931985
537 13.126500 57.359200 32.944800 12.214339 21.240696 10.543568
538 17.520300 86.274400 32.734300 28.700329 53.721596 13.038203
539 56.925800 88.434900 47.142700 36.300123 58.907685 23.176421
540 43.466100 57.461600 33.286800 16.447616 23.388750 10.874339
541 44.285200 63.216700 46.590700 20.413674 28.800740 20.685517
542 51.920100 67.215400 57.381500 27.286386 35.350272 31.405576
543 67.419700 17.628600 46.692500 23.470349 11.859419 20.995817
544 69.044800 18.636100 65.529500 28.020167 14.095353 43.885339
545 80.852500 49.633300 72.832800 43.882296 31.326155 55.127910
546 88.085500 61.473300 76.857100 54.706836 43.180756 61.786382
547 52.925400 38.820600 13.578700 14.440493 13.548922 2.5967958
548 66.666800 43.751400 14.029100 21.591896 18.951872 3.6190126
549 73.671500 74.790200 12.262100 36.806123 46.149812 7.0284208
550 77.016100 87.820500 11.674200 45.081729 63.566423 9.7343828
551 91.504100 90.893800 11.197000 59.773745 73.535712 10.834569
552 12.835800 39.089700 28.142900 5.9904822 9.7864753 7.1118440
553 30.762100 40.841300 40.919400 9.7167190 11.850929 14.918716
554 41.076800 48.852300 51.574700 16.487586 18.596511 25.205255
555 60.114800 62.604800 52.624300 28.530638 32.481237 26.296537
556 33.972300 19.243800 0.0000000 4.9306840 4.0293618 0.5232606
557 46.574600 19.097500 17.080300 8.8377814 6.0802216 3.2420838
558 47.429600 49.599600 15.851500 14.068322 17.957270 3.0848976
559 62.255700 50.589600 28.519800 22.324557 22.301198 8.3748713
560 63.436000 61.517900 29.941300 26.225284 30.592573 9.3198920
561 87.562700 62.657200 52.974600 46.689582 41.338563 27.165659
562 91.029900 66.749100 64.392000 55.646178 48.457596 40.665013
563 19.932700 9.9527000 7.4464000 1.9082193 1.5179012 0.8951115
564 28.609500 15.345600 10.286000 3.6005524 2.9315738 1.5182630
565 69.096300 17.746600 24.338400 20.980125 11.360028 5.4898340
566 84.938500 31.566600 38.874300 35.753162 21.428147 13.785854
567 91.140500 33.135100 53.114600 45.189919 25.617304 26.239407
568 40.613300 28.932500 16.692800 8.2125453 7.6373434 3.1530198
569 58.500800 37.151000 20.218200 16.651607 14.210173 4.5023492
570 67.530200 48.515300 33.638000 25.092832 22.758779 11.366370
571 69.537800 58.491700 47.084700 31.586874 31.192354 20.810417
572 73.980200 87.299800 68.106600 51.769631 64.821586 47.970967
573 89.346500 93.754200 77.752800 70.784085 80.828885 63.755145
574 100.00000 100.00000 100.00000 94.514889 99.238929 110.64930
575 57.633100 64.165200 11.610300 22.874548 30.997314 4.9094370
576 59.569600 78.480600 16.684500 29.276670 46.187062 7.4615396
577 45.346600 64.767100 75.527800 29.270310 32.969608 59.228907
578 62.911700 67.540600 89.573300 43.144005 42.126654 83.938012
579 0.0000000 0.0000000 0.0000000 0.0822070 0.0863757 0.0951058
580 7.4441000 17.041200 16.956300 1.4194089 1.9522260 2.7131283
581 11.320200 21.391100 25.439100 2.5630323 3.2183733 5.6398723
582 39.566900 30.880600 45.917100 11.359477 9.4508427 18.854723
583 90.699900 35.715700 88.305300 55.036917 30.453523 85.824546
584 79.548700 0.0000000 70.335200 37.446525 18.126911 52.610005
585 83.593000 20.574300 73.180400 41.409022 20.443575 57.370674
586 39.111700 8.3865000 33.543100 7.6127557 3.7421643 10.437787
587 54.999900 18.253300 44.931900 16.171216 8.8478936 19.222654
588 62.962600 29.566900 58.423500 23.752420 14.528574 33.370270
589 62.659100 40.426900 68.283500 27.876897 20.215354 46.300364
590 38.712600 51.043500 60.095600 18.293170 20.294605 35.132113
591 50.768600 57.646100 62.469300 24.685921 26.800226 37.637858
592 16.527500 22.822400 61.084500 9.0619888 6.0628215 35.150493
593 17.850100 27.305200 90.545400 19.544712 11.239348 85.637805
594 12.805900 32.102200 84.003500 17.405548 11.792939 72.632822
595 14.973700 52.755000 88.979200 25.212902 23.443980 85.516805
596 31.858200 62.092700 90.126000 30.090991 30.906244 88.168320
597 50.157900 65.241800 92.023400 37.587805 37.018235 91.584776
598 76.512300 60.481500 77.054500 44.329227 37.604556 60.661930
599 90.516000 61.903900 87.030100 60.568217 46.156462 80.892277
600 17.784600 24.764600 19.210000 3.1169428 4.1837801 3.4582838
601 22.391600 30.757500 31.388400 5.3376770 6.4766343 8.5846445
602 24.539400 32.670000 39.127400 7.1144653 7.7148285 13.779364
603 0.0000000 21.925400 12.844800 1.8529689 3.0544540 2.0433897
604 11.315700 27.374800 17.581200 2.7857623 4.5896898 3.0558504
605 11.344600 31.773300 41.509300 6.0041512 7.0067333 15.862398
606 53.598400 73.187000 48.452700 28.416948 40.762372 22.887471
607 67.552700 75.322200 67.371000 41.125621 47.673924 45.213702
608 74.222700 78.996000 88.261700 54.701426 56.945501 82.093359
609 76.982300 86.897000 91.156300 62.171700 68.453412 90.649984
610 11.428900 27.639800 24.733900 3.1960791 4.6900780 5.5483416
611 13.859600 31.316600 35.236500 5.0044924 6.4544382 11.261759
612 17.804400 67.396400 70.347400 24.895862 33.779909 51.352263
613 19.423500 70.626000 80.517600 29.822491 37.881257 69.449136
614 35.318900 77.395200 89.728200 36.747473 45.543331 89.230272
615 22.817200 22.060500 29.092600 4.3087970 4.1444570 7.1523417
616 43.877600 32.662700 29.425700 10.510895 9.5404439 7.6701530
617 52.984200 32.367900 37.005100 15.116204 11.700129 11.780701
618 65.924600 37.902000 40.582900 22.988058 17.374789 15.020146
619 66.090600 60.683400 55.109400 31.969385 32.500827 29.103842
620 12.226900 63.430600 19.336700 13.922852 26.436536 5.1747605
621 5.4753000 87.637800 20.521400 28.854749 55.332918 9.0967886
622 29.411800 100.00000 24.853900 39.134918 75.109425 12.313761
623 27.402000 100.00000 47.194000 41.674282 76.168737 24.904904
624 44.630500 67.982800 14.359400 18.295980 31.979116 5.3291437
625 87.864000 70.966400 27.237600 47.931924 47.734355 8.4049144
626 88.325000 86.282700 26.777800 54.607696 65.471667 9.9461222
627 98.306500 89.420100 39.867300 68.827242 74.549914 17.142540
628 20.692900 43.044300 10.006800 5.9810252 11.398048 2.0737688
629 36.232600 43.228400 15.524900 9.1703770 13.001081 3.0792156
630 86.740800 75.308100 11.176900 48.753975 51.353291 7.3395474
631 86.491400 78.593500 39.710000 51.098070 55.363969 16.024618
632 58.667100 0.0000000 14.188200 14.718433 7.4617441 2.4947046
633 90.039900 6.8701000 26.725300 38.835447 19.598603 7.0033208
634 94.003700 22.625600 26.047000 42.907075 22.587829 6.3236686
635 36.822300 15.217100 8.0631000 5.2687225 3.7799514 1.2662017
636 37.933100 22.933000 18.371000 6.7860166 5.5319526 3.3656819
637 26.904000 22.631700 17.037300 4.1944768 4.2315552 2.7488460
638 35.050800 25.602800 27.069100 7.0532561 6.1221156 6.4803157
639 59.729700 43.184500 47.472400 21.970786 18.655542 20.864517
640 76.033100 53.871400 53.751100 35.918232 30.397963 27.482369
641 76.269000 62.583400 61.385600 40.802351 38.174157 36.769896
642 51.341300 47.387200 25.381900 16.177426 17.880490 6.2803455
643 53.172200 56.425500 33.116200 20.015813 24.590092 10.464948
644 58.494800 71.803900 39.660800 28.432838 39.279449 15.736668
645 70.624500 73.818500 43.295700 36.892274 44.755679 18.362473
646 75.752400 78.997700 60.557600 46.305501 53.911366 36.057915
647 10.059000 30.648600 51.930300 7.6323472 7.2232117 25.271215
648 11.928200 41.477200 58.351800 11.520587 12.438080 33.592710
649 15.134700 42.831800 66.597600 13.931012 13.997633 43.947939
650 17.645500 54.588800 70.952000 19.145911 21.696907 52.682025
651 26.157900 62.909200 75.092500 23.965720 29.229501 59.664448
652 13.452200 43.307000 52.732800 10.671736 13.001461 26.544767
653 25.304200 51.901600 62.223200 15.820685 18.935002 38.754360
654 24.300600 87.325600 62.883000 34.862230 57.876103 39.011460
655 44.755700 91.422100 67.430100 38.601707 63.238503 45.803203
656 26.612700 36.298800 16.057100 5.7891338 8.7114764 2.8802923
657 45.167000 38.597100 24.083200 11.763758 12.130460 5.4791670
658 45.907000 41.004900 34.454700 13.574931 13.885063 10.577928
659 59.777900 87.904700 93.559300 53.096493 64.630745 98.911660
660 69.622600 88.269300 100.00000 63.014661 68.595673 109.54690
661 12.643300 18.620300 68.745200 10.299705 5.6922039 45.594531
662 18.866100 32.382800 71.182200 13.697971 10.276396 51.225543
663 39.224800 32.049800 71.545700 17.530768 12.469430 49.903160
664 67.735900 54.007400 84.629300 39.620539 31.744795 74.640875
665 0.0000000 67.250500 36.578700 17.585188 31.089734 13.748334
666 14.846400 75.776300 58.237500 26.024164 41.909544 32.965699
667 12.343300 93.910100 58.553400 38.516107 66.498979 35.123743
668 0.0000000 44.746600 39.040500 8.7680513 13.187962 13.968525
669 9.6206000 46.041100 46.123200 10.365065 14.501604 20.000396
670 70.205400 45.855000 62.949900 32.498396 24.610182 39.419251
671 8.1176000 9.8951000 15.408600 1.1009996 1.1232335 2.1692692
672 17.631100 13.279300 19.392200 2.2398076 1.9855951 3.3588057
673 35.322000 16.605100 20.996900 5.7657065 4.0308198 4.0373927
674 50.852000 11.612300 20.641300 10.752766 5.7179209 4.0231701
675 55.661800 22.484400 28.936400 14.295062 9.1251321 7.5685908
676 60.447900 71.137700 27.536500 27.175746 37.977437 8.4817065
677 23.250200 51.887600 0.0000000 8.7611853 16.747898 2.8573912
678 30.871400 55.606100 41.951100 13.442791 20.849416 16.133028
679 39.108500 49.706800 37.239700 13.419551 17.690680 12.623442
680 50.040200 50.447500 40.305900 18.134269 20.296855 15.188267
681 63.395100 81.754800 73.418700 43.022005 54.605717 54.467908
682 77.540900 87.503600 79.051600 57.974182 67.649121 65.535619
683 92.789900 93.290600 86.982000 77.299577 83.259799 80.760756
684 6.8746000 45.476900 19.953200 7.2743366 13.187092 4.5553203
685 57.630900 49.759600 38.286300 21.126895 21.357496 13.526794
686 74.555200 52.863100 44.799500 32.211855 28.397699 18.888573
687 63.073900 19.811000 0.0000000 15.769335 9.3048025 0.9046127
688 77.222400 21.623100 19.830400 25.500403 14.447794 4.4683402
689 88.861900 50.924100 20.838600 38.853317 30.712464 6.3134345
690 88.747500 59.640900 41.044900 44.072677 38.218027 17.496821
691 93.006100 72.635200 57.556800 57.476941 53.740166 32.683859
692 24.486400 29.953400 6.3298000 3.9529535 5.6921209 0.8988516
693 36.045200 31.197500 11.882000 6.9515990 7.6085304 1.6842061
694 54.989200 64.331200 61.467000 28.540248 33.317748 36.668206
695 61.284600 68.763600 73.608200 37.209304 40.332741 55.484450
696 25.071000 15.915500 16.955300 3.3300995 2.7734085 2.6539542
697 29.112000 18.272000 25.417700 4.7479936 3.7400203 5.6117707
698 29.577200 20.840600 34.017100 5.8824669 4.6382679 9.9689228
699 30.761000 23.162600 73.242600 14.776003 8.6955793 53.156016
700 49.027800 33.219200 82.307300 24.502891 15.894296 68.729564
701 15.456500 8.1335000 58.838300 7.4796101 3.4808378 32.437799
702 18.332100 12.806100 88.646900 17.560168 8.0295681 81.713138
703 48.735900 9.1214000 87.524600 23.985250 11.093238 78.292402
704 57.769300 29.158700 89.962800 30.711422 17.630620 84.356363
705 41.160200 26.520900 51.556400 12.237409 8.7516894 24.365533
706 50.458700 31.375300 65.593400 19.445982 13.136001 41.562655
707 54.757700 47.103900 88.300000 31.986745 24.416692 79.971295
708 63.771500 58.995300 94.540500 42.560014 35.785783 95.884574
709 17.736700 65.985300 57.601800 20.436104 31.080284 31.521757
710 53.313400 72.285700 70.640100 33.043627 40.984242 51.383273
711 62.112800 72.348500 82.594400 41.756212 44.660339 71.562680
712 88.476600 79.635700 83.111400 64.633904 62.555772 72.319461
713 89.045400 84.407400 92.790900 70.921216 69.931425 94.075911
714 35.479100 30.404800 36.753700 8.7493172 8.1497673 11.794461
715 47.103300 37.143500 39.716700 13.889872 12.621141 13.894924
716 32.481100 63.242400 20.951200 13.715651 25.961235 5.3455908
717 37.543300 80.600800 25.723400 23.672579 45.074690 8.4466894
718 37.267600 89.670800 40.647300 31.962775 58.721625 18.075732
719 47.666000 90.391900 79.784100 41.813833 62.904072 65.593689
720 49.337300 90.519700 100.00000 54.610366 66.686529 109.78020
721 39.474300 39.586600 47.644700 13.139590 13.008261 20.486816
722 42.584100 42.658200 58.307800 17.034387 16.145817 31.619697
723 51.424300 48.323800 58.235100 21.178845 20.190194 31.478016
724 51.835900 50.936800 70.492800 25.754533 23.778381 49.789030
725 82.837600 50.967400 91.333900 51.869781 35.860423 91.551656
726 4.0246000 7.8598000 21.307100 1.1299723 0.9189261 3.8975148
727 6.6227000 15.739800 24.387400 1.8112544 1.9111630 5.1751246
728 24.331800 24.339300 44.077900 6.6824625 5.5945427 16.978949
729 33.067900 33.375700 51.867100 11.067446 9.8503114 24.564434
730 36.779200 45.888400 69.627400 19.077161 17.999180 48.505588
731 62.894700 61.805500 77.262800 36.352923 35.145332 60.003139
732 72.097600 95.000600 79.451700 57.913102 76.322587 66.133200
733 85.066200 58.433600 12.489700 38.716467 34.149600 4.6409785
734 94.642100 69.128800 13.964200 54.347915 48.734256 6.5092939
735 17.880600 15.752900 9.0586000 1.9816370 2.1128483 1.1867463
736 19.455900 15.886700 33.833300 3.8902800 2.9742789 9.8008560
737 31.155300 17.843200 40.772400 6.7542945 4.4883617 14.492012
738 49.729900 76.153400 83.212800 37.832975 45.887711 74.482955
739 58.972600 78.272800 91.951200 47.442183 52.150723 93.493030
740 77.551300 15.413200 34.163600 28.524278 14.320384 10.243598
741 79.637900 25.633900 52.752900 33.856718 18.177581 27.174979
742 53.623100 8.6761000 35.087000 13.477181 6.6759107 11.325580
743 55.344100 21.258200 36.695500 15.254344 9.0042019 12.113311
744 54.812600 47.234700 52.050400 21.427805 19.988764 25.608056
745 61.743300 47.544900 58.290900 26.135114 22.267998 32.660299
746 75.258400 54.891600 63.602300 37.875785 31.406175 39.586601
747 90.698600 73.285500 81.915600 63.494222 56.497601 70.633768
748 43.316100 8.0666000 10.579200 6.9912496 3.7904174 1.6600840
749 50.104100 22.815900 10.569500 10.044365 7.2043666 1.9669046
750 62.279000 31.575800 10.485900 16.618087 12.506850 2.1866290
751 72.174000 34.515100 19.355600 22.578447 16.514758 4.9647521
752 78.948400 38.983100 51.803100 34.530649 22.607639 25.329715
753 18.531200 0.0000000 10.462300 1.5768320 0.8152060 1.6302445
754 33.372100 0.0000000 34.989200 6.0758433 2.9280648 10.879924
755 41.342900 12.657000 43.243100 9.6225158 5.1001038 17.097999
756 47.357600 19.684700 78.827600 21.163215 11.209908 62.493243
757 88.446300 20.927400 87.890300 50.982119 24.913543 85.225445
758 55.154900 15.379300 7.2038000 11.522057 6.9021811 1.4082666
759 57.679300 15.967400 17.290400 13.401161 7.7713347 3.2516559
760 62.458900 25.928500 17.531800 16.088736 10.906807 3.7990530
761 75.975400 41.097900 14.279700 25.861043 20.057504 3.7915209
762 74.845700 60.034200 13.060200 31.300363 31.593975 4.8720709
763 74.406600 68.361100 21.150600 35.386261 39.817440 6.1765763
764 74.505400 70.476400 79.329600 47.529703 46.906533 64.408907
765 76.176600 75.206200 92.116200 55.968748 54.393037 91.565636
766 15.518400 23.501400 34.587600 4.1714597 4.2164422 10.203713
767 28.281000 28.151500 38.946000 7.0155071 6.6678616 12.994313
768 29.848900 40.560400 50.059600 11.358767 12.352320 23.510622
769 28.139800 38.481300 100.00000 26.482055 18.217771 102.72129
770 50.028300 38.986500 100.00000 32.558846 21.789627 101.94439
771 70.337900 40.216900 79.716400 35.746222 23.684761 65.280888
772 89.403700 46.298200 83.541200 53.945635 34.117510 75.110086
773 100.00000 74.313600 86.873800 75.240874 62.306251 80.129395
774 63.611400 60.916800 43.058100 27.625137 30.445223 17.503121
775 63.959900 70.728500 50.136600 32.866776 40.536961 24.581894
776 83.309600 86.562900 51.353800 53.381074 65.002836 26.967398
777 91.664900 86.500100 58.445700 63.573072 69.567494 34.267642
778 88.697900 13.182100 11.659100 35.447391 17.973360 1.9780296
779 89.708200 33.632000 13.140400 37.111124 22.784829 2.9736634
780 88.867800 44.887600 27.926000 37.509515 27.651068 9.2156818
781 90.821000 48.793600 55.404000 47.428723 33.335138 29.421353
782 46.130000 9.4984000 24.988600 9.2490500 4.6407249 5.7979249
783 61.305800 10.863300 26.583800 16.526526 8.3312857 6.4572678
784 82.749500 20.310000 28.750500 30.877743 16.374117 7.6096659
785 65.872100 78.034000 0.0000000 32.529456 47.352104 7.4688907
786 75.758800 89.442700 30.777800 45.231189 64.563935 11.717050
787 87.086300 89.720100 41.588800 56.488329 70.180486 18.311002
788 39.918100 54.402500 82.891500 26.678435 25.456594 71.014459
789 55.042700 55.365300 83.257600 32.562706 28.996290 71.225649
790 76.394700 91.008800 87.821100 61.714259 72.684560 82.458690
791 96.994500 96.994500 96.994500 88.093847 92.587456 104.41509
792 11.253600 28.340600 10.046600 2.5605639 4.6950490 1.4639441
793 21.129800 33.545900 20.361800 4.7380009 7.2338467 3.9485632
794 25.695900 34.451000 27.773900 6.2996058 8.2150505 7.0155348
795 69.748900 30.547000 29.876700 21.966716 14.994245 8.6202398
796 79.075800 36.513500 29.315100 28.572308 20.144534 9.0737516
797 78.390800 44.360900 43.721000 32.504826 24.747563 17.941532
798 91.912700 75.110300 46.223600 55.413647 54.865858 21.825439
799 13.742700 17.571800 45.537600 5.0439189 3.5086619 18.166567
800 12.775200 39.495100 72.041400 14.712393 12.936451 52.193144
801 39.158400 41.190200 73.861500 19.772062 16.236137 54.054028
802 16.336300 0.0000000 25.550300 2.1914659 1.0579964 5.4602614
803 49.628400 59.598900 24.575200 18.238990 25.860355 6.7111323
804 32.813200 82.940600 0.0000000 25.427283 48.724496 8.1606059
805 46.320400 90.228800 10.921200 30.591852 58.654815 9.6942777
806 52.731700 89.753400 32.347600 32.287055 58.967885 12.760982
807 0.0000000 24.669900 42.810900 5.0400904 4.8346773 16.546977
808 52.547300 31.123200 43.735000 15.959195 11.485308 17.793961
809 64.144900 33.509600 51.829400 23.644749 15.640666 25.830026
810 68.298100 41.446400 51.606900 27.916107 20.725595 25.431805
811 76.668800 71.672700 51.158600 42.284313 45.698821 25.765416
812 82.831700 74.162400 68.246900 51.894591 51.813382 46.581054
813 83.209600 82.684800 72.262700 57.534701 62.395171 53.499467
814 34.550000 75.827500 35.398400 21.692196 39.569570 13.140183
815 72.228300 90.077900 45.525600 45.424109 64.994496 22.024239
816 86.252000 90.266200 66.618500 61.907689 72.470520 45.410092
817 7.5558000 16.043100 9.5691000 1.0755859 1.6984826 1.2221412
818 23.874500 24.503600 11.084300 3.6338798 4.3195764 1.6136178
819 34.771300 31.461500 24.751800 7.5215560 7.8346338 5.5453441
820 36.654600 42.566500 35.756100 10.942636 13.392342 11.315190
821 35.554500 67.126800 40.606400 17.741769 30.709964 15.986108
822 45.646400 77.212000 57.699200 28.340608 43.473087 32.088918
823 57.881400 89.561400 61.384300 40.921091 61.923010 38.188639
824 46.840200 81.477100 49.429100 29.181320 48.512566 24.444324
825 94.212400 86.265900 71.468900 69.121902 71.587908 52.264014
END_DATA
CAL    

DESCRIPTOR "Argyll Device Calibration State"
ORIGINATOR "Argyll dispread"
CREATED "Tue May 26 09:59:04 2020"
DEVICE_CLASS "DISPLAY"
COLOR_REP "RGB"

BEGIN_ARGYLL_DISPCAL_ARGS
-v2 -qm -m -w0.3127,0.329 -gs -f1.0 -k0 -A4.0 -d1 -c1 -yn -P0.5,0.5,2.22011385199 -X "Surface Book Pro 5th Gen.ccmx"
END_ARGYLL_DISPCAL_ARGS


NUMBER_OF_FIELDS 4
BEGIN_DATA_FORMAT
RGB_I RGB_R RGB_G RGB_B
END_DATA_FORMAT

NUMBER_OF_SETS 256
BEGIN_DATA
0.00000000 0.00000000 0.00000000 0.00000000
0.00392157 0.03688050 0.03881580 0.03639630
0.00784314 0.05930650 0.06125940 0.05763010
0.01176470 0.07197500 0.07386600 0.07030330
0.01568630 0.08017390 0.08215030 0.07880980
0.01960780 0.08624850 0.08829070 0.08520090
0.02352940 0.09114590 0.09321870 0.09037550
0.02745100 0.09533040 0.09741740 0.09479130
0.03137250 0.09902630 0.10109400 0.09871780
0.03529410 0.10241300 0.10443300 0.10228100
0.03921570 0.10556300 0.10749400 0.10559400
0.04313730 0.10852000 0.11036000 0.10872300
0.04705880 0.11137900 0.11311400 0.11168600
0.05098040 0.11414900 0.11576100 0.11456000
0.05490200 0.11683200 0.11831000 0.11738400
0.05882350 0.11945000 0.12080900 0.12016000
0.06274510 0.12205900 0.12329300 0.12288400
0.06666670 0.12465600 0.12576300 0.12558700
0.07058820 0.12724600 0.12822600 0.12830400
0.07450980 0.12982400 0.13067900 0.13103000
0.07843140 0.13239000 0.13312400 0.13376300
0.08235290 0.13496500 0.13560200 0.13650300
0.08627450 0.13757500 0.13813100 0.13924900
0.09019610 0.14022600 0.14071500 0.14201600
0.09411760 0.14291400 0.14335200 0.14483200
0.09803920 0.14563100 0.14603200 0.14770100
0.10196100 0.14837100 0.14874700 0.15062200
0.10588200 0.15113000 0.15149200 0.15358500
0.10980400 0.15391100 0.15426900 0.15657300
0.11372500 0.15671200 0.15707600 0.15958800
0.11764700 0.15954200 0.15993300 0.16263500
0.12156900 0.16243400 0.16285100 0.16570800
0.12549000 0.16539800 0.16583200 0.16878700
0.12941200 0.16843200 0.16887300 0.17190500
0.13333300 0.17154100 0.17197000 0.17507200
0.13725500 0.17469300 0.17510300 0.17828500
0.14117600 0.17786800 0.17824700 0.18154600
0.14509800 0.18107000 0.18140300 0.18482000
0.14902000 0.18429300 0.18457400 0.18809700
0.15294100 0.18753800 0.18775900 0.19138700
0.15686300 0.19079200 0.19096500 0.19469200
0.16078400 0.19401000 0.19414900 0.19801300
0.16470600 0.19717700 0.19729000 0.20135100
0.16862700 0.20030600 0.20039500 0.20465900
0.17254900 0.20340900 0.20348900 0.20792500
0.17647100 0.20652100 0.20661900 0.21115600
0.18039200 0.20966900 0.20979900 0.21437000
0.18431400 0.21285600 0.21304400 0.21756300
0.18823500 0.21603900 0.21631400 0.22078300
0.19215700 0.21922400 0.21959400 0.22405000
0.19607800 0.22242000 0.22289200 0.22732200
0.20000000 0.22562200 0.22620300 0.23060500
0.20392200 0.22883300 0.22952200 0.23390000
0.20784300 0.23205700 0.23284800 0.23720200
0.21176500 0.23532500 0.23620300 0.24050900
0.21568600 0.23864600 0.23959200 0.24382500
0.21960800 0.24197100 0.24298600 0.24717800
0.22352900 0.24525600 0.24632100 0.25057400
0.22745100 0.24849500 0.24959300 0.25398000
0.23137300 0.25169200 0.25281500 0.25734000
0.23529400 0.25488400 0.25603100 0.26065700
0.23921600 0.25809700 0.25926800 0.26393000
0.24313700 0.26132500 0.26252400 0.26719700
0.24705900 0.26455000 0.26578600 0.27048900
0.25098000 0.26777100 0.26905500 0.27381100
0.25490200 0.27098800 0.27233700 0.27715100
0.25882400 0.27418100 0.27561600 0.28050700
0.26274500 0.27730300 0.27884200 0.28387200
0.26666700 0.28040400 0.28206700 0.28724400
0.27058800 0.28351500 0.28532300 0.29057400
0.27451000 0.28664100 0.28860500 0.29389100
0.27843100 0.28977200 0.29189100 0.29721200
0.28235300 0.29289700 0.29516800 0.30055000
0.28627500 0.29602400 0.29843800 0.30390300
0.29019600 0.29915600 0.30169600 0.30724500
0.29411800 0.30230000 0.30493800 0.31057900
0.29803900 0.30546100 0.30817500 0.31390400
0.30196100 0.30869400 0.31146800 0.31722500
0.30588200 0.31201300 0.31482200 0.32054100
0.30980400 0.31539200 0.31822000 0.32388200
0.31372500 0.31880800 0.32162300 0.32730000
0.31764700 0.32220700 0.32498400 0.33077800
0.32156900 0.32558500 0.32831200 0.33428800
0.32549000 0.32893800 0.33160300 0.33777100
0.32941200 0.33226900 0.33486800 0.34121500
0.33333300 0.33558800 0.33812400 0.34462900
0.33725500 0.33889000 0.34137000 0.34801000
0.34117600 0.34215100 0.34458200 0.35137000
0.34509800 0.34537400 0.34779900 0.35472400
0.34902000 0.34861100 0.35104600 0.35806800
0.35294100 0.35186000 0.35432600 0.36136400
0.35686300 0.35512000 0.35763600 0.36465100
0.36078400 0.35840500 0.36099400 0.36796200
0.36470600 0.36174400 0.36442100 0.37128800
0.36862700 0.36513000 0.36789900 0.37462700
0.37254900 0.36854700 0.37141300 0.37800200
0.37647100 0.37199800 0.37496800 0.38144300
0.38039200 0.37549800 0.37855300 0.38494100
0.38431400 0.37898600 0.38210900 0.38848600
0.38823500 0.38239100 0.38556800 0.39207900
0.39215700 0.38569700 0.38892300 0.39571800
0.39607800 0.38893100 0.39220500 0.39933200
0.40000000 0.39213200 0.39546800 0.40286700
0.40392200 0.39537700 0.39877000 0.40631600
0.40784300 0.39866700 0.40210500 0.40971100
0.41176500 0.40198300 0.40546200 0.41308700
0.41568600 0.40532100 0.40883700 0.41650700
0.41960800 0.40868800 0.41222700 0.41997800
0.42352900 0.41207200 0.41562600 0.42347300
0.42745100 0.41547900 0.41905000 0.42698100
0.43137300 0.41886900 0.42243500 0.43051100
0.43529400 0.42221200 0.42578000 0.43406100
0.43921600 0.42556000 0.42912700 0.43763300
0.44313700 0.42891400 0.43246900 0.44118100
0.44705900 0.43226000 0.43578000 0.44467300
0.45098000 0.43558700 0.43904900 0.44816600
0.45490200 0.43889100 0.44228400 0.45166500
0.45882400 0.44217100 0.44548300 0.45514900
0.46274500 0.44542500 0.44865200 0.45859800
0.46666700 0.44867200 0.45180700 0.46201900
0.47058800 0.45191600 0.45495100 0.46541700
0.47451000 0.45515600 0.45808600 0.46879700
0.47843100 0.45840100 0.46122300 0.47216200
0.48235300 0.46171000 0.46442200 0.47553600
0.48627500 0.46512500 0.46772300 0.47892600
0.49019600 0.46867300 0.47116400 0.48233500
0.49411800 0.47224400 0.47463000 0.48580600
0.49803900 0.47578900 0.47807700 0.48940300
0.50196100 0.47930700 0.48150300 0.49316700
0.50588200 0.48279900 0.48490800 0.49695700
0.50980400 0.48626600 0.48829200 0.50072400
0.51372500 0.48970800 0.49166000 0.50446900
0.51764700 0.49313500 0.49501300 0.50819100
0.52156900 0.49654500 0.49834600 0.51188600
0.52549000 0.49995000 0.50167200 0.51555100
0.52941200 0.50337800 0.50500600 0.51918200
0.53333300 0.50682800 0.50836000 0.52277400
0.53725500 0.51025700 0.51171300 0.52632800
0.54117600 0.51364900 0.51503500 0.52987100
0.54509800 0.51705700 0.51836500 0.53341600
0.54902000 0.52050300 0.52174900 0.53694200
0.55294100 0.52399700 0.52519300 0.54040600
0.55686300 0.52753000 0.52869200 0.54384700
0.56078400 0.53109200 0.53223200 0.54731200
0.56470600 0.53467200 0.53580500 0.55080900
0.56862700 0.53819800 0.53935600 0.55434700
0.57254900 0.54163500 0.54284800 0.55791500
0.57647100 0.54501700 0.54628600 0.56150900
0.58039200 0.54835700 0.54969500 0.56507800
0.58431400 0.55165700 0.55307900 0.56858200
0.58823500 0.55494600 0.55646700 0.57203900
0.59215700 0.55826800 0.55990200 0.57548000
0.59607800 0.56157900 0.56336800 0.57891000
0.60000000 0.56484700 0.56681300 0.58233700
0.60392200 0.56808000 0.57023000 0.58580700
0.60784300 0.57127200 0.57361300 0.58931900
0.61176500 0.57441800 0.57694700 0.59282100
0.61568600 0.57750300 0.58020900 0.59630500
0.61960800 0.58054400 0.58341000 0.59977700
0.62352900 0.58360000 0.58662100 0.60322700
0.62745100 0.58667200 0.58985200 0.60662800
0.63137300 0.58976900 0.59310400 0.60996800
0.63529400 0.59292400 0.59639800 0.61331000
0.63921600 0.59618500 0.59978100 0.61666900
0.64313700 0.59957400 0.60327300 0.62004300
0.64705900 0.60310400 0.60688500 0.62343800
0.65098000 0.60676500 0.61060100 0.62691300
0.65490200 0.61053200 0.61440500 0.63049100
0.65882400 0.61440000 0.61829200 0.63420100
0.66274500 0.61837100 0.62226600 0.63804500
0.66666700 0.62242200 0.62632600 0.64201000
0.67058800 0.62640800 0.63031800 0.64608900
0.67451000 0.63028700 0.63419300 0.65028600
0.67843100 0.63405300 0.63793100 0.65459400
0.68235300 0.63768200 0.64151800 0.65883400
0.68627500 0.64115800 0.64494900 0.66294900
0.69019600 0.64450200 0.64824700 0.66691300
0.69411800 0.64774900 0.65144100 0.67071200
0.69803900 0.65095600 0.65458900 0.67435000
0.70196100 0.65416300 0.65772000 0.67785000
0.70588200 0.65736700 0.66083500 0.68125400
0.70980400 0.66059000 0.66395800 0.68459600
0.71372500 0.66387700 0.66714200 0.68793500
0.71764700 0.66721100 0.67038000 0.69127400
0.72156900 0.67059200 0.67366900 0.69461700
0.72549000 0.67402000 0.67700400 0.69801400
0.72941200 0.67747600 0.68036300 0.70146700
0.73333300 0.68091800 0.68371400 0.70495900
0.73725500 0.68432800 0.68705100 0.70849500
0.74117600 0.68771600 0.69037600 0.71206700
0.74509800 0.69109400 0.69369400 0.71563100
0.74902000 0.69451300 0.69704100 0.71917300
0.75294100 0.69799000 0.70045300 0.72269800
0.75686300 0.70149200 0.70390800 0.72620600
0.76078400 0.70499000 0.70735900 0.72969700
0.76470600 0.70848100 0.71080900 0.73321400
0.76862700 0.71196800 0.71426600 0.73679200
0.77254900 0.71544300 0.71772200 0.74037300
0.77647100 0.71889300 0.72115300 0.74394800
0.78039200 0.72231600 0.72453700 0.74752100
0.78431400 0.72577700 0.72791100 0.75109400
0.78823500 0.72930100 0.73132800 0.75465300
0.79215700 0.73290700 0.73480300 0.75816400
0.79607800 0.73658500 0.73835400 0.76163600
0.80000000 0.74031000 0.74197000 0.76513700
0.80392200 0.74408400 0.74563700 0.76868100
0.80784300 0.74785700 0.74935800 0.77229400
0.81176500 0.75154900 0.75304700 0.77598300
0.81568600 0.75513800 0.75665700 0.77974000
0.81960800 0.75861800 0.76017700 0.78356400
0.82352900 0.76204300 0.76360700 0.78740600
0.82745100 0.76545100 0.76700400 0.79118400
0.83137300 0.76884600 0.77038700 0.79488200
0.83529400 0.77222300 0.77375700 0.79849900
0.83921600 0.77562900 0.77712500 0.80207100
0.84313700 0.77906600 0.78053500 0.80565200
0.84705900 0.78253100 0.78397700 0.80924400
0.85098000 0.78603600 0.78745000 0.81284400
0.85490200 0.78961700 0.79097200 0.81648400
0.85882400 0.79326600 0.79456800 0.82017200
0.86274500 0.79696900 0.79822600 0.82389800
0.86666700 0.80065400 0.80193600 0.82766100
0.87058800 0.80428400 0.80562700 0.83149900
0.87451000 0.80784500 0.80926100 0.83541800
0.87843100 0.81134800 0.81282800 0.83940900
0.88235300 0.81486900 0.81634300 0.84340000
0.88627500 0.81843900 0.81988700 0.84734500
0.89019600 0.82206400 0.82348800 0.85124300
0.89411800 0.82573000 0.82714000 0.85511300
0.89803900 0.82939500 0.83083600 0.85903900
0.90196100 0.83303100 0.83452800 0.86305000
0.90588200 0.83664400 0.83818800 0.86715300
0.90980400 0.84031300 0.84184200 0.87133200
0.91372500 0.84403300 0.84556100 0.87551700
0.91764700 0.84776400 0.84933500 0.87969100
0.92156900 0.85147200 0.85312000 0.88393000
0.92549000 0.85519500 0.85690300 0.88827000
0.92941200 0.85892900 0.86071600 0.89266700
0.93333300 0.86265400 0.86454700 0.89705800
0.93725500 0.86637600 0.86837200 0.90149200
0.94117600 0.87010600 0.87221000 0.90596000
0.94509800 0.87384300 0.87607900 0.91042000
0.94902000 0.87758700 0.87997800 0.91489900
0.95294100 0.88133400 0.88391000 0.91940100
0.95686300 0.88509000 0.88786700 0.92394100
0.96078400 0.88885800 0.89184600 0.92851500
0.96470600 0.89263700 0.89584800 0.93312100
0.96862700 0.89642700 0.89987000 0.93776900
0.97254900 0.90023700 0.90391400 0.94247000
0.97647100 0.90406800 0.90797400 0.94723800
0.98039200 0.90791900 0.91204800 0.95207500
0.98431400 0.91179100 0.91613700 0.95698000
0.98823500 0.91568400 0.92024100 0.96195600
0.99215700 0.91959900 0.92436000 0.96700300
0.99607800 0.92353500 0.92849400 0.97212400
1.00000000 0.92749200 0.93264300 0.97732000
END_DATA
