CTI3   

DESCRIPTOR "Argyll Calibration Target chart information 3"
ORIGINATOR "Argyll dispread"
CREATED "Mon Sep 28 21:39:48 2020"
DEVICE_CLASS "DISPLAY"
SINGLE_DIM_STEPS "21"
COMP_GREY_STEPS "61"
DARK_REGION_EMPHASIS "1.6"
COLOR_REP "RGB_XYZ"
TARGET_INSTRUMENT "X-Rite i1 DisplayPro, ColorMunki Display"
DISPLAY_TYPE_REFRESH "NO"
DISPLAY_TYPE_BASE_ID "1"
INSTRUMENT_TYPE_SPECTRAL "NO"
LUMINANCE_XYZ_CDM2 "87.467983 91.727069 99.514992"
NORMALIZED_TO_Y_100 "YES"
VIDEO_LUT_CALIBRATION_POSSIBLE "YES"

BEGIN_ARGYLL_COLPROF_ARGS
-v -qh -aX -bn -C "No copyright. Created with DisplayCAL 3.8.9.3 and ArgyllCMS 2.1.2" -M "27531" -A "AU Optronics"
END_ARGYLL_COLPROF_ARGS

OBSERVER "1931_2"
USE_BLACK_POINT_COMPENSATION "NO"
BLACK_POINT_CORRECTION "0.0"
HIRES_B2A "YES"
HIRES_B2A_SIZE "-1"
SMOOTH_B2A "YES"
PATCH_SEQUENCE "OPTIMIZE_DISPLAY_RESPONSE_DELAY"

NUMBER_OF_FIELDS 7
BEGIN_DATA_FORMAT
SAMPLE_ID RGB_R RGB_G RGB_B XYZ_X XYZ_Y XYZ_Z
END_DATA_FORMAT

NUMBER_OF_SETS 588
BEGIN_DATA
1 100.00000 100.00000 100.00000 95.357030 100.00027 108.49059
2 1.9608000 1.9608000 1.9608000 0.1333533 0.1407172 0.1578167
3 3.9216000 3.9216000 3.9216000 0.2652939 0.2867699 0.3426538
4 5.8824000 5.8824000 5.8824000 0.4688254 0.5055775 0.5981150
5 9.8039000 9.8039000 9.8039000 1.0124396 1.0668035 1.1998645
6 13.726000 13.726000 13.726000 1.7501076 1.8773407 2.1032414
7 17.647000 17.647000 17.647000 2.6583267 2.8074128 3.0765378
8 21.569000 21.569000 21.569000 3.7287009 3.9438940 4.2995483
9 25.490000 25.490000 25.490000 5.2370327 5.5409825 6.0198035
10 29.412000 29.412000 29.412000 6.9354879 7.2117698 8.0670963
11 33.333000 33.333000 33.333000 8.9544873 9.4397762 10.176812
12 37.255000 37.255000 37.255000 11.138444 11.672557 12.511552
13 41.176000 41.176000 41.176000 13.791630 14.482527 15.699215
14 45.098000 45.098000 45.098000 16.758252 17.616392 19.003003
15 49.020000 49.020000 49.020000 19.925607 20.796606 22.895226
16 52.941000 52.941000 52.941000 23.690665 24.905140 26.931743
17 56.863000 56.863000 56.863000 28.187272 29.474704 32.023974
18 60.784000 60.784000 60.784000 32.825363 34.555836 37.149325
19 64.706000 64.706000 64.706000 38.030600 39.987102 43.141027
20 68.627000 68.627000 68.627000 43.632579 45.879620 49.349911
21 72.549000 72.549000 72.549000 49.975507 52.387440 56.353261
22 76.471000 76.471000 76.471000 57.189398 59.993354 64.557619
23 80.392000 80.392000 80.392000 65.662724 68.960059 74.158187
24 84.314000 84.314000 84.314000 69.768738 73.151509 79.331805
25 88.235000 88.235000 88.235000 76.722490 80.739594 87.115601
26 92.157000 92.157000 92.157000 80.870332 84.954883 92.077158
27 96.078000 96.078000 96.078000 82.848237 86.820513 94.430317
28 100.00000 47.825300 24.378100 47.807170 31.214399 5.7386633
29 100.00000 53.701300 68.764000 54.655696 36.298381 30.571927
30 100.00000 61.791100 84.687700 61.918945 42.989964 56.806731
31 0.0000000 73.129400 29.869400 21.095556 40.504590 14.904309
32 0.0000000 82.492200 57.825400 32.755006 57.852936 38.772835
33 0.0000000 100.00000 77.522900 42.977917 76.011987 49.863679
34 47.396600 100.00000 80.444900 48.637085 78.486711 53.962093
35 87.459700 100.00000 91.700000 76.657482 93.170401 82.507188
36 4.8077000 0.0000000 0.0000000 0.2196041 0.1604294 0.1168424
37 7.4257000 0.0000000 0.0000000 0.3496102 0.2253606 0.1234654
38 10.204100 0.0000000 0.0000000 0.5189144 0.3129808 0.1374785
39 13.157900 0.0000000 0.0000000 0.7741687 0.4445962 0.1534302
40 16.304300 0.0000000 0.0000000 1.1065544 0.6158678 0.1698466
41 19.662900 0.0000000 0.0000000 1.4636743 0.8003909 0.1838219
42 23.255800 0.0000000 0.0000000 1.9824693 1.0686404 0.2004350
43 27.108400 0.0000000 0.0000000 2.6914051 1.4354686 0.2200534
44 31.250000 0.0000000 0.0000000 3.6756541 1.9442268 0.2463630
45 35.714300 0.0000000 0.0000000 4.7521331 2.5010709 0.2751360
46 40.540500 0.0000000 0.0000000 6.1354683 3.2164142 0.3116207
47 48.935000 0.0000000 0.0000000 9.2901536 4.8472933 0.3958549
48 51.470600 0.0000000 0.0000000 10.268361 5.3532175 0.4220241
49 57.692300 0.0000000 0.0000000 13.701574 7.1286804 0.5123635
50 64.516100 0.0000000 0.0000000 17.741210 9.2197526 0.6167741
51 72.033900 0.0000000 0.0000000 23.164208 12.022892 0.7597129
52 80.357100 0.0000000 0.0000000 30.808280 15.977543 0.9556235
53 89.622600 0.0000000 0.0000000 36.003857 18.747024 1.1141627
54 100.00000 0.0000000 78.180300 50.874829 25.587120 38.424840
55 100.00000 0.0000000 100.00000 62.593406 30.492610 98.891655
56 100.00000 30.103000 100.00000 64.760613 34.091845 100.42874
57 100.00000 53.495600 100.00000 69.581046 42.603040 103.07123
58 38.290800 30.878800 27.027900 10.299270 9.8609221 7.8527236
59 37.382000 65.771200 35.831300 23.958024 36.702023 17.261128
60 74.520400 100.00000 46.995900 54.380838 83.491546 25.018225
61 82.889800 100.00000 78.757500 65.612286 88.706732 53.287842
62 0.0000000 23.255800 0.0000000 1.7867062 3.5631484 0.7626108
63 0.0000000 27.108400 0.0000000 2.2730708 4.5524219 0.9313836
64 0.0000000 31.250000 0.0000000 2.9804396 6.0018387 1.1785048
65 0.0000000 35.714300 0.0000000 3.8691895 7.8313702 1.4992022
66 0.0000000 40.540500 0.0000000 4.9742781 10.089095 1.8884635
67 0.0000000 45.774700 0.0000000 6.5931796 13.401623 2.4669467
68 0.0000000 51.470600 0.0000000 8.2133281 16.702792 3.0398321
69 0.0000000 57.692300 0.0000000 10.930223 22.331650 4.0176791
70 0.0000000 64.516100 0.0000000 14.538518 29.660536 5.2888586
71 0.0000000 72.033900 0.0000000 18.873472 38.583283 6.8216438
72 0.0000000 80.357100 0.0000000 25.140003 51.357265 9.0214494
73 29.466600 82.857400 0.0000000 29.627810 55.898720 9.6480965
74 44.657000 100.00000 0.0000000 39.692288 74.145207 12.533841
75 51.626100 100.00000 37.436900 42.636992 75.318606 19.407886
76 0.0000000 0.0000000 4.8077000 0.1450896 0.1163642 0.3976463
77 0.0000000 0.0000000 7.4257000 0.2050522 0.1405062 0.7159369
78 0.0000000 0.0000000 10.204100 0.2802501 0.1714389 1.1077155
79 0.0000000 0.0000000 13.157900 0.4141076 0.2259315 1.7942878
80 0.0000000 0.0000000 16.304300 0.5642302 0.2875839 2.5817747
81 0.0000000 0.0000000 19.662900 0.7130045 0.3485593 3.3476541
82 0.0000000 0.0000000 23.255800 0.9283315 0.4368875 4.4753102
83 0.0000000 0.0000000 27.108400 1.2408459 0.5653420 6.1234496
84 0.0000000 0.0000000 31.250000 1.6768466 0.7451873 8.4015657
85 0.0000000 0.0000000 35.714300 2.1022463 0.9202748 10.640641
86 0.0000000 0.0000000 40.540500 2.7220841 1.1746548 13.862796
87 0.0000000 0.0000000 45.774700 3.5166090 1.5023988 18.012377
88 0.0000000 0.0000000 51.470600 4.4783689 1.8995487 23.052063
89 0.0000000 0.0000000 57.692300 5.8201104 2.4519870 30.027500
90 0.0000000 0.0000000 64.516100 7.6378992 3.2012479 39.523951
91 0.0000000 0.0000000 72.033900 9.9517457 4.1520061 51.557551
92 0.0000000 0.0000000 80.357100 13.204605 5.5088099 68.564873
93 0.0000000 0.0000000 89.622600 15.742956 6.5599078 81.745260
94 0.0000000 38.614600 100.00000 21.152004 13.053508 97.315343
95 0.7645000 0.7645000 0.7645000 0.0967423 0.1008620 0.1148680
96 1.5432000 1.5432000 1.5432000 0.1193778 0.1257388 0.1425259
97 2.3364000 2.3364000 2.3364000 0.1715606 0.1799425 0.2085420
98 3.1447000 3.1447000 3.1447000 0.2093485 0.2187179 0.2551176
99 3.9683000 3.9683000 3.9683000 0.2766113 0.2988374 0.3594470
100 4.8077000 4.8077000 4.8077000 0.3844710 0.4019340 0.4705042
101 5.6634000 5.6634000 5.6634000 0.4528436 0.4748579 0.5538747
102 6.5359000 6.5359000 6.5359000 0.5857788 0.6391568 0.7586467
103 7.4257000 7.4257000 7.4257000 0.7099559 0.7445563 0.8527999
104 8.3333000 8.3333000 8.3333000 0.8075886 0.8506577 0.9668728
105 9.2593000 9.2593000 9.2593000 0.9972373 1.0502872 1.1841580
106 10.204100 10.204100 10.204100 1.1064203 1.1655152 1.3070280
107 11.168400 11.168400 11.168400 1.2621639 1.3297462 1.4863184
108 12.152800 12.152800 12.152800 1.4819321 1.5944228 1.8002382
109 13.157900 13.157900 13.157900 1.7760731 1.8926080 2.1134543
110 14.184400 14.184400 14.184400 1.9507820 2.0576599 2.2686397
111 15.233000 15.233000 15.233000 2.2421642 2.3912446 2.6522157
112 16.304300 16.304300 16.304300 2.5280771 2.6589571 3.0088800
113 17.399300 17.399300 17.399300 2.7304240 2.8740069 3.2154081
114 18.518500 18.518500 18.518500 3.0011467 3.1726301 3.4707384
115 19.662900 19.662900 19.662900 3.3533736 3.5657362 3.9120934
116 20.833300 20.833300 20.833300 3.7216872 3.9279517 4.3586025
117 22.030700 22.030700 22.030700 4.1161256 4.3601152 4.7501361
118 23.255800 23.255800 23.255800 4.5283140 4.7905897 5.2139318
119 24.509800 24.509800 24.509800 5.0132473 5.3040157 5.7668531
120 25.793600 25.793600 25.793600 5.6074099 5.9385884 6.4490054
121 27.108400 27.108400 27.108400 6.1460388 6.4465786 7.1042245
122 28.455300 28.455300 28.455300 6.8382251 7.1319672 7.9383628
123 29.835400 29.835400 29.835400 7.4585755 7.7420450 8.6730523
124 31.250000 31.250000 31.250000 8.3186366 8.6297500 9.6914877
125 32.700400 32.700400 32.700400 8.9395279 9.3330318 10.349654
126 34.188000 34.188000 34.188000 9.8441031 10.392412 11.214617
127 35.714300 35.714300 35.714300 10.801088 11.296454 12.326180
128 37.280700 37.280700 37.280700 11.758087 12.317860 13.205562
129 38.888900 38.888900 38.888900 12.882739 13.512568 14.496677
130 40.540500 40.540500 40.540500 13.940473 14.573753 16.026691
131 42.237400 42.237400 42.237400 15.590293 16.294509 17.798995
132 43.981500 43.981500 43.981500 16.798901 17.628512 19.276861
133 45.774700 45.774700 45.774700 18.407642 19.355148 20.902372
134 47.619100 47.619100 47.619100 19.637139 20.592955 22.554501
135 49.516900 49.516900 49.516900 21.480010 22.333940 24.633372
136 51.470600 51.470600 51.470600 23.250274 24.202970 26.509551
137 53.482600 53.482600 53.482600 25.596483 26.820667 28.824452
138 55.555600 55.555600 55.555600 28.578615 29.858617 32.526193
139 57.692300 57.692300 57.692300 30.308211 31.623071 34.450990
140 59.895800 59.895800 59.895800 33.931446 35.551163 38.657850
141 62.169300 62.169300 62.169300 37.014643 38.798303 41.662481
142 64.516100 64.516100 64.516100 40.250584 42.312593 45.658279
143 66.939900 66.939900 66.939900 43.759644 45.949847 50.313670
144 69.444400 69.444400 69.444400 47.545411 49.977814 53.905876
145 72.033900 72.033900 72.033900 52.338696 54.960790 59.191869
146 74.712600 74.712600 74.712600 57.377570 60.228114 64.685633
147 77.485400 77.485400 77.485400 62.384805 65.324235 70.382569
148 80.357100 80.357100 80.357100 69.375745 72.870582 78.626825
149 83.333300 83.333300 83.333300 72.760800 76.560923 82.620113
150 86.419700 86.419700 86.419700 77.581823 81.436094 88.297590
151 89.622600 89.622600 89.622600 84.018676 88.301659 96.093525
152 100.00000 25.905000 0.0000000 44.737852 24.995996 1.7124970
153 100.00000 42.900500 0.0000000 46.892789 29.437415 2.4921406
154 100.00000 56.988800 0.0000000 51.051921 36.162007 3.5965732
155 59.059400 46.054000 34.026200 24.177224 22.754172 13.229961
156 61.882700 45.649100 54.693400 29.679298 25.391679 31.069065
157 15.450400 39.856300 38.183200 8.4363145 11.855250 14.238798
158 15.471000 46.116300 83.784300 21.093126 18.618879 76.741506
159 25.375200 49.544900 100.00000 24.215022 17.439580 97.390490
160 26.214900 43.613300 0.0000000 8.4330687 13.296718 2.2873154
161 44.703700 56.748100 0.0000000 18.330405 25.559242 4.0643391
162 63.359300 66.464200 0.0000000 31.955660 39.339800 5.8979095
163 83.766000 70.587900 29.168400 48.697822 48.343414 12.578499
164 0.0000000 50.592900 22.634700 8.6889047 16.339347 7.1232439
165 0.0000000 52.582200 62.129200 15.287766 20.248989 38.150582
166 0.0000000 64.802200 82.826000 26.927286 32.821970 75.910301
167 0.0000000 66.807500 100.00000 26.739654 25.434427 96.579315
168 30.230400 0.0000000 50.922200 7.6182147 3.5371675 22.288931
169 31.854800 0.0000000 71.487400 13.140918 5.8554130 49.288842
170 73.317100 0.0000000 100.00000 31.579257 14.486977 92.956790
171 27.768600 26.262800 43.175300 7.8422780 6.8993322 16.394425
172 35.952600 37.677200 55.822100 14.300738 13.272019 29.265343
173 57.741300 64.144500 72.527900 37.438555 39.805880 56.395839
174 31.248900 0.0000000 100.00000 19.824421 8.4154811 92.344566
175 31.675600 22.163500 100.00000 20.712123 10.308256 92.499660
176 51.254000 52.579100 100.00000 28.980338 20.788216 95.809108
177 50.299100 64.135600 100.00000 32.618692 27.847043 99.365585
178 69.525300 66.653200 100.00000 40.581910 33.197884 101.23530
179 0.0000000 100.00000 55.803800 39.237058 74.836697 29.678835
180 29.211300 100.00000 67.337100 43.154180 76.774114 39.798621
181 100.00000 85.676300 52.733400 66.811615 64.900803 22.913925
182 100.00000 87.149600 70.875100 71.620128 69.807513 39.056443
183 49.855300 64.538100 38.923800 27.327189 36.646186 18.741224
184 64.067500 73.001000 49.996400 43.055894 52.734866 30.496960
185 36.504500 53.450300 32.529700 16.404288 22.943924 12.940353
186 58.976300 53.766600 31.844900 26.038244 27.874012 12.526241
187 100.00000 72.540700 46.235300 55.451362 45.326703 15.760182
188 0.0000000 0.0000000 0.0000000 0.0863338 0.0906638 0.0974138
189 20.337300 0.0000000 32.859400 3.2814373 1.5628172 9.0211709
190 65.962600 28.547200 67.642800 29.356792 17.996256 45.300435
191 100.00000 100.00000 100.00000 92.769291 97.280894 105.67131
192 0.0000000 19.662900 0.0000000 1.2652848 2.4928163 0.5698937
193 0.0000000 28.913400 16.877200 2.9919751 5.2327587 3.5689056
194 0.0000000 64.855100 42.767700 17.342827 30.538548 20.585265
195 24.775900 100.00000 87.642100 46.689818 75.089976 70.723034
196 47.895400 100.00000 100.00000 56.492138 78.732800 105.07894
197 100.00000 27.648700 23.969000 43.714076 24.691589 4.5153208
198 100.00000 46.049800 78.752000 54.108720 33.128517 40.644565
199 0.0000000 0.0000000 2.3364000 0.1047708 0.0998265 0.1853184
200 0.0000000 16.802600 37.226200 3.1534683 2.8446992 11.715987
201 0.0000000 36.034600 51.590900 8.4094417 9.8470427 24.727418
202 33.076500 47.184500 53.271700 15.813073 18.235716 27.689000
203 65.528700 54.287900 70.964800 37.460154 32.915506 53.723773
204 35.201000 0.0000000 32.409400 6.3775055 3.1651584 9.1605684
205 71.833400 0.0000000 50.204900 27.172106 13.664792 22.541941
206 72.234800 0.0000000 64.080200 30.660636 15.131089 39.233285
207 74.727700 0.0000000 80.379000 38.768128 18.745384 69.058455
208 100.00000 0.0000000 34.708500 43.105872 22.196586 6.9120559
209 100.00000 43.063900 38.401900 46.652520 29.095870 9.3473165
210 100.00000 51.744700 55.175600 51.007513 33.553969 19.169066
211 50.654900 19.586400 0.0000000 11.626613 7.9627706 0.8709151
212 60.651600 38.645600 0.0000000 20.411786 17.588604 2.1833408
213 78.002700 46.558300 0.0000000 35.352235 28.768014 3.3166712
214 80.551900 81.570900 0.0000000 55.740590 68.202162 10.092185
215 100.00000 100.00000 0.0000000 77.415020 92.879363 13.342596
216 100.00000 100.00000 29.385200 78.033193 92.924371 17.814334
217 100.00000 100.00000 51.062600 80.997626 95.120907 27.158173
218 100.00000 100.00000 69.094300 85.278542 98.034702 42.154250
219 0.0000000 7.4257000 0.0000000 0.3263223 0.5712597 0.2323094
220 0.0000000 10.204100 0.0000000 0.4589212 0.8447200 0.2816595
221 0.0000000 14.014600 13.568800 1.1118049 1.6209757 2.1781001
222 41.972300 20.445600 33.754100 9.9325713 6.9444703 10.233699
223 0.0000000 0.0000000 0.0000000 0.0879468 0.0922292 0.1000597
224 0.0000000 0.0000000 100.00000 18.220760 7.5453345 94.713544
225 0.0000000 22.802800 100.00000 19.165449 9.5550353 95.158675
226 0.0000000 100.00000 100.00000 53.512455 79.192850 109.21686
227 75.678200 0.0000000 16.852100 26.902127 14.018077 3.5656765
228 78.149500 0.0000000 40.788600 31.807847 16.196463 15.298042
229 100.00000 27.733300 66.738300 48.626345 26.719962 26.440074
230 100.00000 66.929800 67.321200 56.483568 42.754394 30.275879
231 100.00000 73.791800 83.068000 63.917219 50.129107 52.568893
232 100.00000 86.935400 100.00000 84.145291 74.740501 106.54408
233 13.167900 15.452600 0.0000000 1.6508277 2.1636664 0.4726061
234 0.0000000 13.157900 0.0000000 0.7116078 1.3647467 0.3751249
235 0.0000000 16.304300 0.0000000 0.9556787 1.8619383 0.4628195
236 0.0000000 27.071100 26.256700 3.3674959 4.9984618 6.6681167
237 24.308300 61.670400 100.00000 26.954035 23.493700 97.615550
238 41.465100 72.122400 100.00000 32.808984 31.858361 98.305200
239 45.125700 83.602100 100.00000 40.519923 45.911678 102.04297
240 0.0000000 89.622600 0.0000000 30.271343 61.817926 10.976658
241 0.0000000 100.00000 0.0000000 36.304524 74.167876 12.937983
242 0.0000000 100.00000 31.876600 37.657206 75.263189 18.403789
243 100.00000 100.00000 100.00000 101.18230 106.23340 115.32930
244 92.948700 92.948700 92.948700 88.451106 93.093624 101.03721
245 96.405200 96.405200 96.405200 89.514201 93.996625 101.88778
246 53.359300 0.0000000 71.567000 21.962979 10.431841 52.544234
247 60.145400 23.991800 100.00000 29.649009 15.021544 101.47759
248 83.302300 78.455100 100.00000 55.640854 48.722848 106.33029
249 45.774700 0.0000000 0.0000000 8.6124606 4.5029630 0.3880378
250 71.539900 25.897300 0.0000000 25.398362 16.264430 1.4764432
251 77.766300 25.361400 28.264800 31.553028 19.290061 8.3017023
252 54.542500 27.160800 22.177600 15.074895 11.100122 5.4197690
253 64.224700 37.891600 23.868500 23.068382 18.575841 6.9497583
254 76.916900 39.954000 48.804900 36.381020 25.912716 23.435073
255 100.00000 0.0000000 49.588600 44.386897 22.724053 13.243610
256 100.00000 0.0000000 63.670100 46.019057 23.447752 22.770451
257 100.00000 28.267400 83.201800 52.927571 28.667028 48.236369
258 0.0000000 2.3364000 0.0000000 0.1177106 0.1533217 0.1206278
259 0.0000000 4.8077000 0.0000000 0.1938250 0.3049632 0.1642485
260 0.0000000 11.079500 21.272200 1.1973015 1.2184710 3.9358064
261 0.0000000 20.836400 72.756600 11.270908 6.8215265 52.114352
262 0.0000000 52.801100 100.00000 22.901299 17.755006 94.895017
263 84.278200 62.542200 100.00000 47.344500 34.227170 96.193191
264 100.00000 71.797800 100.00000 70.447639 51.015129 98.354448
265 12.848500 0.0000000 14.594000 1.0965551 0.5735446 2.0918737
266 24.150900 0.0000000 16.370800 2.6575975 1.3678245 2.6450276
267 25.889400 38.961600 18.747100 7.5445688 10.751387 4.8416028
268 58.288700 47.510800 44.003100 24.136806 22.762952 19.364508
269 100.00000 0.0000000 0.0000000 41.037541 21.226987 1.2081097
270 100.00000 0.0000000 18.971200 41.755560 21.671078 3.0382062
271 100.00000 63.662800 26.051900 51.451564 38.833192 7.4276278
272 100.00000 100.00000 85.646600 89.700503 99.203632 69.066605
273 29.235500 36.760000 100.00000 23.360569 13.885362 99.486720
274 55.307000 39.377900 100.00000 29.223178 17.444910 99.802146
275 69.370600 51.624000 100.00000 36.569812 24.650801 100.57033
276 45.269500 33.016100 65.222500 19.029445 14.253157 42.404469
277 63.931300 74.165500 69.987200 48.737610 56.355910 57.624206
278 0.0000000 14.440300 48.736200 4.8113916 3.2350894 21.218909
279 0.0000000 30.031100 56.664800 8.2768834 7.8292923 29.879786
280 0.0000000 34.554600 74.748700 14.348536 11.815621 57.022232
281 0.0000000 49.054200 74.902500 17.757620 19.056231 57.259472
282 0.0000000 72.121200 76.557500 29.195129 41.704439 63.563181
283 0.0000000 82.677600 100.00000 33.487525 39.905986 96.947189
284 35.676700 53.199400 52.530400 17.852515 22.178707 26.711782
285 85.560400 62.077400 58.129400 47.659417 39.974803 28.830391
286 60.404500 84.467400 0.0000000 39.658080 61.201182 9.9499576
287 73.610800 100.00000 0.0000000 49.017488 78.091518 12.611707
288 61.832700 100.00000 19.572700 44.038082 74.936613 14.445989
289 26.002400 68.824600 47.751400 22.909978 36.826068 26.026722
290 39.324100 70.746000 69.258100 33.286933 43.911354 54.408744
291 0.0000000 62.377300 56.505600 18.938259 29.523941 33.667834
292 0.0000000 81.907800 72.975700 34.877255 55.888930 57.845387
293 63.710900 100.00000 73.015500 49.340644 76.354752 42.315653
294 37.221000 0.0000000 16.861400 5.6177513 2.8961540 2.8030218
295 41.886000 11.258100 15.506600 7.4121711 4.5395655 2.6673702
296 72.980600 22.683000 38.953800 27.013832 16.088708 13.293368
297 100.00000 27.684600 40.408200 43.151020 24.085625 9.1061688
298 51.951000 0.0000000 15.611400 10.568368 5.4617259 2.5761135
299 54.002300 0.0000000 32.511100 12.883719 6.5304870 8.9483593
300 67.353100 14.608400 69.207800 28.209871 14.800313 45.502926
301 66.245600 100.00000 88.543700 55.155695 77.796550 71.791808
302 77.077600 100.00000 100.00000 65.290080 81.755530 102.23256
303 15.988600 8.8594000 0.0000000 1.3412735 1.1893122 0.2772755
304 29.749300 12.900000 0.0000000 3.7883847 2.8625094 0.4314602
305 26.502900 21.668200 0.0000000 3.9127922 4.1095879 0.6868141
306 37.860500 37.509500 0.0000000 9.2986815 11.024145 1.7162329
307 56.203900 48.617200 0.0000000 19.395449 20.840244 2.9652413
308 100.00000 69.167600 0.0000000 49.740667 39.911876 4.4581602
309 100.00000 83.160400 0.0000000 56.834493 54.137345 6.9923295
310 40.837800 28.875600 34.343500 10.555979 8.9952483 10.917270
311 55.559400 31.112500 46.318400 18.821264 13.662452 19.549550
312 75.700100 35.544800 68.438000 37.582229 24.264017 46.206066
313 83.118000 53.976800 79.531600 50.717915 37.749338 61.929151
314 53.746800 0.0000000 100.00000 23.992362 10.575684 91.851767
315 61.941100 12.198100 85.268400 27.522681 13.620414 73.712326
316 68.954000 28.071000 87.691600 33.095701 18.444887 80.441557
317 41.075000 7.8534000 27.175700 7.8959832 4.3664869 6.4103421
318 58.008000 10.576400 27.789200 15.277306 8.4339464 6.8643140
319 59.451300 22.199100 52.349900 20.252713 12.317170 23.950141
320 60.407000 39.462000 86.774300 29.707627 19.494632 76.459758
321 80.087800 41.007200 100.00000 37.463034 21.981945 92.703871
322 13.216700 48.251000 64.298200 14.651923 17.172831 39.647287
323 11.414300 64.716200 74.077900 24.644094 33.098738 58.013439
324 18.124800 80.530800 85.637300 35.090916 47.274420 80.534763
325 19.146000 86.595100 82.574900 40.588700 62.128272 71.116047
326 58.598300 91.077700 91.848200 55.982439 72.795875 93.505976
327 53.947100 15.893400 10.918000 12.624160 7.8184608 1.8965451
328 86.244800 28.772500 8.4461000 35.420012 21.423729 2.3665630
329 87.356300 37.817900 43.363000 41.429084 26.329738 15.017924
330 63.320300 13.927400 19.869000 18.156432 10.435110 4.2400836
331 81.001100 35.451300 24.224300 34.977971 23.329597 6.7988768
332 85.617800 46.555100 37.879600 41.014392 29.484403 12.620747
333 86.852400 84.137900 57.132000 64.798491 71.520099 34.095416
334 64.966600 77.383400 37.663400 42.453860 55.328994 20.167363
335 79.053100 87.427200 51.368500 56.366453 73.467436 29.391847
336 75.541600 60.780600 0.0000000 38.847895 39.165078 5.2903645
337 80.920600 72.110100 10.052100 48.942172 53.188226 8.3605528
338 89.448900 83.368900 39.444000 59.992467 64.655474 18.776903
339 39.750500 48.011200 21.565600 13.362578 17.688539 6.5764313
340 50.902300 48.222100 40.744500 19.861549 20.873593 16.793668
341 81.217100 49.597700 62.148700 44.460314 33.417254 37.623824
342 0.0000000 0.0000000 0.0000000 0.0863199 0.0905679 0.0970468
343 14.750000 1.1212000 8.9833000 1.1040465 0.6069302 0.9961701
344 15.332700 7.8663000 14.324000 1.6137829 1.1988738 2.2229334
345 20.520200 7.7851000 9.7732000 2.0274465 1.4341297 1.2506776
346 27.853100 7.9597000 16.323100 3.5918686 2.2052286 2.7630528
347 27.768300 7.6315000 26.408900 4.1962706 2.4461673 5.9528125
348 88.606500 13.266500 27.310400 36.909758 19.765130 5.9457434
349 100.00000 100.00000 100.00000 95.879948 100.56054 109.10537
350 11.987900 24.791800 20.113600 3.2042368 4.4911105 4.2566781
351 11.471400 34.624300 42.398000 7.2028594 9.0840105 16.742370
352 16.931200 54.629200 46.070000 14.316017 21.814602 21.651130
353 0.0000000 45.996600 34.959200 8.5307545 14.224658 12.478103
354 32.352100 55.666300 42.856900 17.034891 23.954480 19.490572
355 46.401300 64.297500 57.918500 28.633853 36.213634 36.140188
356 84.076400 68.756400 90.088000 56.081395 46.361879 87.704125
357 40.440000 37.342900 46.190400 14.018980 13.345826 20.349735
358 50.286500 38.036400 52.201000 19.077283 16.142306 25.993863
359 58.512300 49.901400 83.270000 34.533260 27.241029 76.640160
360 57.797600 61.432500 86.925100 36.887709 33.448093 84.236714
361 12.016200 66.730000 53.324200 21.211721 34.398872 31.244648
362 20.334100 71.312200 70.603000 29.755305 42.861399 56.627649
363 24.125500 91.509900 100.00000 43.748904 57.639915 104.22038
364 15.101900 12.911500 51.438900 6.0195808 3.6106273 23.399297
365 30.247700 13.503700 62.730100 11.280547 6.1102391 37.501188
366 44.728500 14.445000 65.392800 16.624548 8.9509692 42.003556
367 57.481000 27.504100 74.397000 27.091819 16.411814 57.569268
368 27.038000 27.484500 35.443800 7.0719961 6.9463792 11.519664
369 53.400400 33.501500 35.500900 17.006972 13.823975 12.406996
370 69.071500 56.146500 48.078400 35.529727 33.876155 25.101921
371 69.289700 66.264900 58.717300 42.890231 45.038226 38.200799
372 72.606400 85.227900 85.369900 61.940214 72.186791 87.478025
373 14.315400 32.393600 85.910600 18.575734 12.207404 80.064233
374 38.811400 50.336300 86.366100 27.072590 22.543471 83.525865
375 26.416800 36.955200 77.269100 18.924699 15.191606 64.050230
376 43.826100 39.718200 84.611300 25.827743 18.325792 79.610473
377 0.0000000 41.339700 43.883500 8.6172928 12.260642 18.920797
378 18.006000 46.332500 53.157400 12.978325 16.613095 27.858413
379 27.061500 84.070400 60.515600 35.306117 58.984697 39.788271
380 47.623100 88.326200 66.040500 43.803122 68.519118 44.221081
381 74.096500 88.572100 65.466400 57.391019 76.622761 44.360175
382 75.202900 88.590900 78.544900 62.153785 79.106274 62.929568
383 41.854300 27.312000 0.0000000 9.2801933 8.3483530 1.1506771
384 44.595700 36.403400 9.7358000 12.060844 12.414726 2.7651619
385 26.656100 59.846300 0.0000000 14.823665 26.297780 4.5380488
386 31.249200 71.815500 17.918600 23.196636 40.729611 9.8310287
387 40.265000 84.930400 51.531000 36.857160 61.026650 29.789290
388 63.507500 86.395600 71.941400 51.708743 70.273753 53.489033
389 18.444200 2.5951000 45.565000 4.8824442 2.2690419 18.192047
390 50.989000 0.0000000 48.983500 14.328127 7.0308026 21.380261
391 51.820500 9.2619000 58.461000 17.087978 8.7699159 31.673099
392 84.821700 33.629500 79.443700 47.239545 27.832934 58.374474
393 88.231400 66.293400 80.772600 59.071387 47.591266 59.802493
394 35.666000 27.924800 14.200800 7.5631160 7.4115662 2.9488330
395 54.784700 35.856000 13.656100 16.513513 14.464138 3.6698181
396 65.662100 78.810800 100.00000 42.790085 41.235049 100.47984
397 5.0385000 53.652300 54.478100 14.471401 20.962719 29.750332
398 25.908200 58.722000 57.548200 20.018913 27.498088 34.635202
399 32.922000 68.823200 57.614400 26.788962 39.014844 36.537471
400 44.153300 77.970900 82.471400 42.764347 53.755142 80.383359
401 69.880000 0.0000000 26.532500 22.679438 11.649228 6.6476653
402 85.031200 15.373000 37.668000 36.624120 19.887555 11.034495
403 93.659200 15.994800 48.580400 42.489628 22.716144 16.738090
404 100.00000 30.573900 55.282400 49.457149 27.854533 18.574692
405 100.00000 74.279100 62.955600 61.282652 50.036691 28.354692
406 32.360800 35.659100 12.460500 8.6276103 10.661681 3.2966001
407 33.766700 54.037500 15.258300 14.928271 22.829979 6.0583326
408 46.753700 85.165100 18.907400 35.956739 61.490980 13.018290
409 63.645300 87.146500 28.053300 45.202632 68.856724 16.678643
410 81.982700 100.00000 27.660600 57.864129 85.515279 17.559955
411 10.943200 38.278100 17.483200 5.7775666 10.050657 4.5788051
412 39.838300 38.993800 28.355700 12.358131 13.520348 8.8398272
413 51.658300 40.772300 44.272600 19.351241 17.581124 19.210974
414 69.363300 16.433300 12.632700 22.373961 12.923224 2.4954734
415 86.743400 15.536600 12.958600 35.217300 19.337339 2.6031838
416 87.466300 52.615100 31.451600 44.960312 33.902604 10.432081
417 100.00000 60.209000 46.365200 53.961666 39.069792 15.069642
418 50.899900 21.795500 31.256900 13.714333 9.2834009 9.5659291
419 62.278700 25.761300 31.304100 20.952972 13.854124 9.9742126
420 29.055500 10.247500 8.7876000 3.7391577 2.5324926 1.1567077
421 37.959200 18.090300 23.394600 7.4082165 5.3796224 5.1763486
422 48.128500 66.886800 22.365200 25.584484 37.230761 10.137274
423 49.969400 76.007700 38.505700 33.379139 49.572401 20.151434
424 86.650600 76.410300 60.434200 56.691709 55.086955 33.853166
425 77.424300 66.095700 54.232900 47.670916 47.165134 32.269384
426 87.127200 73.125000 68.326800 56.721758 51.759787 41.966118
427 88.702000 75.400000 79.106100 62.315688 55.845922 56.909727
428 100.00000 85.850700 83.149300 72.867705 67.645966 56.088912
429 9.8071000 18.308000 22.031900 2.3768872 2.8361775 4.5740395
430 14.118600 22.458000 31.677800 4.0631608 4.3120292 9.2056244
431 26.170900 41.607400 60.076400 14.306158 14.904939 35.401250
432 48.556300 46.622700 69.924300 24.978140 22.343240 50.080200
433 51.121300 74.004600 88.374100 38.380315 41.755917 85.396544
434 8.5653000 19.851100 61.773800 8.4638113 5.6108425 35.974493
435 21.933800 22.773200 79.022200 15.842802 9.3499331 65.545946
436 45.256000 22.695200 77.688000 21.260469 12.215014 62.120203
437 32.211200 26.753600 68.886900 14.906592 10.084896 47.214103
438 39.363700 29.353700 89.488500 21.740039 12.542340 81.654625
439 13.852900 26.172200 48.862800 6.8446898 6.3432811 21.553353
440 16.497500 29.881900 62.298200 10.666694 8.8230597 37.143175
441 15.220300 41.384300 68.194800 14.906672 14.970356 46.873197
442 25.772100 56.618000 77.446800 24.363716 27.315146 64.208263
443 32.472600 64.871800 79.442700 31.224312 37.046409 71.434673
444 51.655900 65.688100 85.293100 35.864753 36.300421 79.995426
445 67.934400 42.275600 77.668300 37.487463 26.744021 64.021811
446 83.506100 45.897700 88.812900 47.868148 30.841595 82.689570
447 37.045100 11.757000 41.409300 8.3404264 4.8041471 14.927844
448 46.187500 23.134900 45.100400 13.281112 9.0520298 18.218377
449 64.029000 35.913200 45.035500 24.629585 18.410748 19.303810
450 87.010100 37.740800 56.887100 42.120694 26.458333 25.105321
451 47.731100 54.162400 14.844700 18.692189 24.060096 5.8275365
452 61.244400 60.391700 15.104400 28.236570 33.243892 7.0441513
453 84.143200 75.871300 87.009500 62.013301 56.036484 84.695534
454 27.086500 17.623300 15.858200 4.1641158 3.6551234 2.8367234
455 29.293700 18.617800 24.844300 5.3144661 4.3192929 5.6250818
456 32.886500 21.390800 35.682300 7.5288744 5.8686404 11.336211
457 21.714200 11.892900 23.194300 3.0691179 2.2764526 4.7530665
458 47.970100 41.449300 23.981000 15.143302 15.921125 7.0188134
459 67.292200 42.883900 40.050100 27.837677 22.763901 16.296909
460 73.735500 60.501100 39.471800 39.604682 38.988175 18.564012
461 73.005600 71.576700 38.588300 45.109806 51.692810 19.677624
462 87.339700 73.066500 48.028000 52.728419 49.681057 21.785684
463 51.094000 55.833600 36.180300 22.299735 26.699153 14.868621
464 60.219400 58.159700 45.922100 29.932627 32.246245 22.593589
465 69.725900 74.552900 62.092300 48.798928 55.744756 43.862186
466 84.081700 83.713900 74.660400 67.737245 73.695356 58.260699
467 14.551500 28.486300 12.511900 3.5774560 5.5191934 2.5195070
468 14.489100 29.043500 31.108100 4.9146336 6.1824200 9.1571602
469 15.159400 29.833000 44.025700 6.7773857 7.2188035 17.629302
470 2.3364000 0.0000000 0.0000000 0.1241658 0.1109935 0.1037571
471 9.9228000 8.5965000 33.792900 2.5995654 1.6435867 9.6037217
472 22.039000 72.534700 37.370600 23.009794 40.721421 18.368510
473 29.293100 74.341100 86.003000 34.203934 41.758866 82.961439
474 39.333700 53.204800 67.202000 23.740623 25.609529 47.455202
475 57.490400 57.171000 73.213000 35.012009 33.685053 57.814158
476 69.576400 68.466200 85.731200 45.810196 43.215134 82.203281
477 16.566400 18.039000 40.174500 4.7473300 3.8237122 13.963211
478 27.640900 23.647800 53.514500 9.3224175 6.9131266 25.858109
479 33.855600 38.982800 66.605400 17.254101 15.159148 45.077524
480 37.881000 54.333000 78.723000 27.515511 27.713319 68.048019
481 0.0000000 23.813500 34.247100 3.6478957 4.3991915 10.293211
482 40.089600 29.281700 50.925600 13.022383 10.208880 23.866314
483 69.775600 33.044100 54.636100 29.926507 20.012740 28.356652
484 14.846700 14.493300 6.9842000 1.7839781 2.0585769 0.9715452
485 25.834600 18.367400 7.9324000 3.6958238 3.5727369 1.2433686
486 43.488500 25.565000 10.819700 9.5416271 7.9955242 2.2188203
487 69.693300 33.809900 29.676200 26.420918 18.898187 9.4813347
488 70.292000 65.288900 73.949400 47.189267 45.950027 61.114626
489 16.483700 48.708200 31.813800 10.107448 16.322888 11.293094
490 16.169300 60.190300 33.928000 15.103053 26.217013 14.147571
491 13.782300 59.706700 88.384600 24.950771 25.133210 83.427469
492 21.138500 76.084300 100.00000 31.681712 33.659354 99.619524
493 64.166200 90.471600 100.00000 52.459451 61.624704 104.45207
494 84.231200 91.664100 100.00000 66.056957 69.752215 106.08710
495 8.3763000 13.061000 28.739100 2.3561851 2.0484513 7.3045338
496 19.550300 18.223400 29.876700 4.0363552 3.5974569 8.1506799
497 87.022300 40.059200 67.430000 45.628204 28.760934 37.610305
498 0.8604000 8.2905000 12.344300 0.6322806 0.7441793 1.6792428
499 10.805200 10.084000 20.119100 1.6293119 1.3777191 3.6867045
500 25.506900 11.804600 39.117200 5.4329142 3.3335312 13.286446
501 37.825800 13.912100 52.408300 10.735371 6.1227225 24.768095
502 50.705200 22.882200 56.309200 17.347337 10.860122 30.103127
503 64.666800 87.462800 55.312500 47.194656 68.041649 32.568721
504 34.343700 86.975800 35.338000 34.697943 62.607052 19.163916
505 57.757700 91.882400 45.699500 44.978512 71.449493 25.547902
506 18.767100 28.374300 0.0000000 3.8796260 5.7070704 1.0449025
507 23.871300 33.596400 27.916500 6.9091960 8.7943629 7.9282543
508 27.822700 37.875700 48.599900 11.219870 12.058231 22.414337
509 27.010000 58.616100 65.899200 22.163141 28.119722 46.006135
510 45.446600 64.094300 70.343200 31.619125 36.945343 54.101217
511 41.797900 50.671200 46.093100 18.476439 21.399220 21.828542
512 49.834800 57.192700 46.111700 24.369586 28.825271 22.954444
513 57.313800 68.816100 58.026000 36.423859 43.952622 37.189853
514 57.115600 79.445100 58.907500 43.354331 58.063457 40.668174
515 44.334400 72.332500 0.0000000 26.581351 42.568442 7.0493371
516 61.221400 73.969500 13.635900 36.175959 49.527083 9.5414561
517 73.226500 75.066800 24.280800 46.340563 55.706778 13.126235
518 92.704500 85.757500 24.238700 62.126956 69.322064 13.342806
519 0.0000000 0.0000000 0.0000000 0.0878236 0.0920264 0.0998137
520 69.377400 59.825800 24.343800 34.285930 36.155717 9.9440778
521 85.513600 61.435100 31.986400 45.851954 39.679406 12.013343
522 88.960200 63.288200 50.582100 50.800142 41.944668 21.900679
523 58.237100 38.569700 63.573400 26.393009 20.023319 41.024398
524 70.629000 46.464100 65.216100 37.265893 28.860830 44.156614
525 72.123200 56.420800 83.572000 44.708233 36.137448 77.887087
526 12.785400 85.131100 46.059400 31.686062 58.792596 25.739084
527 26.595600 84.465700 71.340700 38.968719 61.911642 55.051406
528 44.717400 87.516900 81.510700 48.041210 69.779194 70.937445
529 15.213000 61.837500 19.183900 14.931481 28.135771 8.2530754
530 14.228300 83.644700 22.641100 28.643822 56.178168 13.683741
531 28.500300 100.00000 21.578400 37.624887 73.351641 14.804803
532 30.492500 100.00000 49.157400 39.409261 73.549812 24.936879
533 15.165200 10.136100 65.063800 9.2450354 4.5810217 41.167151
534 18.082400 13.245400 84.855000 16.354530 7.8265224 76.624131
535 41.724900 11.880800 85.437200 21.227541 10.086585 79.109504
536 85.832900 18.565000 84.952200 50.678777 26.175945 77.218865
537 56.116700 100.00000 58.630500 47.724124 79.519086 32.296243
538 80.679700 100.00000 64.081700 60.135091 85.954950 37.096327
539 19.164700 43.936600 11.500400 8.0933702 13.811996 3.8168648
540 13.284600 37.483400 27.817200 6.5213517 10.014659 8.4332567
541 28.709300 44.754300 38.655700 12.070664 15.704694 15.161318
542 48.752200 46.449000 59.796300 22.317804 21.298104 35.797983
543 58.921300 52.589800 60.358300 29.714027 28.044895 37.209132
544 70.317200 59.687700 60.316700 40.111930 38.163321 38.602662
545 74.201800 58.188900 68.573400 44.993481 39.565411 50.340389
546 86.871500 62.258400 68.578600 51.893395 41.988167 40.569108
547 70.910300 50.471300 53.124100 34.879105 29.533731 28.234517
548 85.470100 52.585400 52.585100 44.692494 33.597917 23.513590
549 82.683300 13.896600 51.060700 37.025883 19.719182 22.140599
550 85.803700 11.232900 69.607800 42.219580 21.737536 39.927655
551 52.815900 10.837600 40.179400 14.369315 7.8621559 14.295945
552 65.185000 17.037800 42.461100 21.839544 12.483893 16.315428
553 68.952600 14.518800 55.947200 26.984504 14.552494 29.426816
554 83.822300 20.019100 61.431900 39.304215 21.470077 31.721277
555 83.396000 20.657600 100.00000 40.354460 20.222931 95.825097
556 15.140800 4.9070000 24.975400 2.0953403 1.1885022 5.3205202
557 33.510900 43.151800 31.174300 11.428761 14.460828 10.361294
558 57.783900 64.157700 31.731900 29.488346 36.796359 13.988538
559 71.902200 69.888600 50.357600 44.432635 49.009895 28.669888
560 9.2594000 19.263300 9.8747000 1.8278827 2.7453154 1.5275959
561 21.297900 25.275700 9.1586000 3.7203037 4.8035501 1.6970238
562 26.330100 28.223900 19.562400 5.5286883 6.3798565 4.2826536
563 28.473000 37.266900 40.564700 9.8410493 11.209167 15.404098
564 45.181900 51.293500 58.819400 21.930131 23.125546 34.452880
565 51.845200 61.562900 61.785700 29.988605 34.259998 40.253261
566 39.610400 15.780800 7.5557000 6.8958324 4.8412775 1.2029272
567 40.805800 23.134400 19.017000 8.5544704 6.8779141 3.9310568
568 48.993100 34.870200 27.467300 14.114296 12.770470 7.8478428
569 63.005200 26.428400 9.6104000 19.003976 13.016840 2.2824766
570 62.485000 48.070800 13.238100 23.828939 23.203513 4.8039224
571 78.475000 55.700300 11.541500 38.484220 35.026625 5.7159503
572 78.581900 88.993300 13.361800 50.489915 70.445126 12.263142
573 82.103000 90.415900 38.995800 57.320192 75.884122 20.977428
574 50.923200 47.655200 14.744200 17.351517 19.980631 5.0775557
575 67.310600 48.705100 26.001100 27.762670 25.406308 8.6768972
576 75.011000 51.016800 38.209300 35.498388 30.319177 15.318681
577 84.438600 86.648500 67.802400 64.989683 75.396923 46.171347
578 26.339800 54.578500 24.118000 12.858620 20.860123 8.4018920
579 43.050600 67.663300 48.661400 26.984854 38.005628 26.427755
580 48.777000 78.087100 68.008700 39.946507 53.915245 52.380141
581 57.724700 78.715400 77.019000 48.068229 58.944429 67.708003
582 61.675800 74.828000 81.605000 48.299359 53.739662 76.951067
583 72.315200 78.335300 89.168800 50.053074 50.562659 87.030634
584 79.466100 38.769600 13.659600 33.962224 24.556475 4.3145874
585 88.928800 51.076300 15.971500 41.278100 30.264850 4.9148416
586 69.239200 41.381500 13.581300 25.879241 21.426909 4.3237630
587 94.120900 68.994600 20.113300 48.704522 43.066360 7.6798090
588 100.00000 80.400200 29.227200 57.356680 51.662712 10.618093
END_DATA
CAL    

DESCRIPTOR "Argyll Device Calibration State"
ORIGINATOR "Argyll dispread"
CREATED "Mon Sep 28 21:39:48 2020"
DEVICE_CLASS "DISPLAY"
COLOR_REP "RGB"

BEGIN_ARGYLL_DISPCAL_ARGS
-v2 -ql -m -w0.3127,0.329 -gs -f1.0 -k0 -A4.0 -d1 -c1 -yn -P0.499546690843,0.498098859316,1.24732824427 -Iw
END_ARGYLL_DISPCAL_ARGS


NUMBER_OF_FIELDS 4
BEGIN_DATA_FORMAT
RGB_I RGB_R RGB_G RGB_B
END_DATA_FORMAT

NUMBER_OF_SETS 256
BEGIN_DATA
0.00000000 0.00000000 0.00000000 0.00000000
0.00392157 0.00397301 0.00412269 0.00417864
0.00784314 0.00770815 0.00797940 0.00807775
0.01176470 0.01122620 0.01159510 0.01172450
0.01568630 0.01454550 0.01499160 0.01514250
0.01960780 0.01768240 0.01818840 0.01835280
0.02352940 0.02065160 0.02120250 0.02137360
0.02745100 0.02347120 0.02405720 0.02423280
0.03137250 0.02616400 0.02677480 0.02696120
0.03529410 0.02874260 0.02936400 0.02956780
0.03921570 0.03122130 0.03184330 0.03206420
0.04313730 0.03361050 0.03422410 0.03445950
0.04705880 0.03593800 0.03652410 0.03677650
0.05098040 0.03820380 0.03876570 0.03903990
0.05490200 0.04042860 0.04096010 0.04125330
0.05882350 0.04260370 0.04310440 0.04341830
0.06274510 0.04472810 0.04521380 0.04554840
0.06666670 0.04680950 0.04729040 0.04764240
0.07058820 0.04885550 0.04932970 0.04968890
0.07450980 0.05086160 0.05134550 0.05170310
0.07843140 0.05286340 0.05336610 0.05371290
0.08235290 0.05485800 0.05535790 0.05568810
0.08627450 0.05682200 0.05732800 0.05763740
0.09019610 0.05875700 0.05927560 0.05955920
0.09411760 0.06066500 0.06122360 0.06148430
0.09803920 0.06257230 0.06317590 0.06341930
0.10196100 0.06448420 0.06514080 0.06536860
0.10588200 0.06640000 0.06709680 0.06731250
0.10980400 0.06830260 0.06903430 0.06924020
0.11372500 0.07018270 0.07096590 0.07116130
0.11764700 0.07205290 0.07289030 0.07308070
0.12156900 0.07391760 0.07480450 0.07499280
0.12549000 0.07577200 0.07669340 0.07688430
0.12941200 0.07760460 0.07854860 0.07874620
0.13333300 0.07941130 0.08038780 0.08060010
0.13725500 0.08121200 0.08224280 0.08247830
0.14117600 0.08303780 0.08411520 0.08437740
0.14509800 0.08488730 0.08600980 0.08629810
0.14902000 0.08676350 0.08793250 0.08824990
0.15294100 0.08868190 0.08985690 0.09020220
0.15686300 0.09061720 0.09176660 0.09213520
0.16078400 0.09254880 0.09364530 0.09403200
0.16470600 0.09446640 0.09549850 0.09589460
0.16862700 0.09636970 0.09732720 0.09772990
0.17254900 0.09825880 0.09913130 0.09953520
0.17647100 0.10013000 0.10092900 0.10133300
0.18039200 0.10200500 0.10271400 0.10311900
0.18431400 0.10387200 0.10446300 0.10487500
0.18823500 0.10571000 0.10615800 0.10658100
0.19215700 0.10749900 0.10780800 0.10823800
0.19607800 0.10924400 0.10945400 0.10988500
0.20000000 0.11099200 0.11114600 0.11157900
0.20392200 0.11280100 0.11289200 0.11333100
0.20784300 0.11468000 0.11468200 0.11513000
0.21176500 0.11660600 0.11651000 0.11696200
0.21568600 0.11856400 0.11836400 0.11882200
0.21960800 0.12054700 0.12021800 0.12069100
0.22352900 0.12253000 0.12206900 0.12255900
0.22745100 0.12451600 0.12392500 0.12444200
0.23137300 0.12650600 0.12579400 0.12634300
0.23529400 0.12849700 0.12766100 0.12825000
0.23921600 0.13047600 0.12952200 0.13015500
0.24313700 0.13243700 0.13137800 0.13205800
0.24705900 0.13437200 0.13323300 0.13396100
0.25098000 0.13628900 0.13509000 0.13587100
0.25490200 0.13818900 0.13694200 0.13778100
0.25882400 0.14006700 0.13879100 0.13969000
0.26274500 0.14193900 0.14064300 0.14160100
0.26666700 0.14381000 0.14250800 0.14351500
0.27058800 0.14569900 0.14439600 0.14544500
0.27451000 0.14759600 0.14627400 0.14735800
0.27843100 0.14946700 0.14811900 0.14923000
0.28235300 0.15130700 0.14993700 0.15106100
0.28627500 0.15313100 0.15176600 0.15288800
0.29019600 0.15498200 0.15363500 0.15474200
0.29411800 0.15687800 0.15554800 0.15663200
0.29803900 0.15881300 0.15748000 0.15853600
0.30196100 0.16076400 0.15941600 0.16043700
0.30588200 0.16272500 0.16135900 0.16233800
0.30980400 0.16469000 0.16330400 0.16424300
0.31372500 0.16665800 0.16524700 0.16614900
0.31764700 0.16863900 0.16718800 0.16805700
0.32156900 0.17063300 0.16913000 0.16996700
0.32549000 0.17264600 0.17108100 0.17188600
0.32941200 0.17465500 0.17301800 0.17379300
0.33333300 0.17663100 0.17491500 0.17566700
0.33725500 0.17854400 0.17673900 0.17747300
0.34117600 0.18038800 0.17849500 0.17921200
0.34509800 0.18219800 0.18020500 0.18091500
0.34902000 0.18399100 0.18188800 0.18259800
0.35294100 0.18579400 0.18356700 0.18428500
0.35686300 0.18762000 0.18524900 0.18598900
0.36078400 0.18947700 0.18694800 0.18771700
0.36470600 0.19138000 0.18869000 0.18949400
0.36862700 0.19334300 0.19048400 0.19133800
0.37254900 0.19535800 0.19233800 0.19324800
0.37647100 0.19740500 0.19423400 0.19520600
0.38039200 0.19945900 0.19614800 0.19718500
0.38431400 0.20151500 0.19806300 0.19916900
0.38823500 0.20359600 0.19999200 0.20117100
0.39215700 0.20568500 0.20193100 0.20318900
0.39607800 0.20776300 0.20387400 0.20521400
0.40000000 0.20984100 0.20581900 0.20724800
0.40392200 0.21192600 0.20778700 0.20930700
0.40784300 0.21399800 0.20977100 0.21137400
0.41176500 0.21605200 0.21175100 0.21343700
0.41568600 0.21809100 0.21373000 0.21549700
0.41960800 0.22011100 0.21570800 0.21755500
0.42352900 0.22209900 0.21767800 0.21959900
0.42745100 0.22407600 0.21964300 0.22163300
0.43137300 0.22604400 0.22161300 0.22365900
0.43529400 0.22800500 0.22358600 0.22567900
0.43921600 0.22994900 0.22556000 0.22768600
0.44313700 0.23186300 0.22750800 0.22965600
0.44705900 0.23377500 0.22944500 0.23161800
0.45098000 0.23569000 0.23138400 0.23358300
0.45490200 0.23761200 0.23332200 0.23554100
0.45882400 0.23955100 0.23527100 0.23750700
0.46274500 0.24147900 0.23722600 0.23946200
0.46666700 0.24339700 0.23916200 0.24139800
0.47058800 0.24528300 0.24106500 0.24329900
0.47451000 0.24712700 0.24291100 0.24515300
0.47843100 0.24895100 0.24469500 0.24695500
0.48235300 0.25075800 0.24644400 0.24872900
0.48627500 0.25255000 0.24816900 0.25048100
0.49019600 0.25435200 0.24988300 0.25222900
0.49411800 0.25619600 0.25162200 0.25401000
0.49803900 0.25810200 0.25341100 0.25584800
0.50196100 0.26010100 0.25527700 0.25776600
0.50588200 0.26220200 0.25723100 0.25977300
0.50980400 0.26438700 0.25927500 0.26186500
0.51372500 0.26658600 0.26136300 0.26395800
0.51764700 0.26880000 0.26344900 0.26605100
0.52156900 0.27104900 0.26554100 0.26815800
0.52549000 0.27332800 0.26766900 0.27028700
0.52941200 0.27562200 0.26984000 0.27243200
0.53333300 0.27795000 0.27204000 0.27459400
0.53725500 0.28031000 0.27428400 0.27678300
0.54117600 0.28266900 0.27654900 0.27896700
0.54509800 0.28503000 0.27881000 0.28112900
0.54902000 0.28739700 0.28107500 0.28327900
0.55294100 0.28975400 0.28335500 0.28543000
0.55686300 0.29211200 0.28564000 0.28757400
0.56078400 0.29444400 0.28794300 0.28973100
0.56470600 0.29670600 0.29023700 0.29188600
0.56862700 0.29892400 0.29247500 0.29399000
0.57254900 0.30111700 0.29468700 0.29606200
0.57647100 0.30330800 0.29689100 0.29812600
0.58039200 0.30549600 0.29910800 0.30021600
0.58431400 0.30765600 0.30132800 0.30232000
0.58823500 0.30978300 0.30352800 0.30442500
0.59215700 0.31188800 0.30570800 0.30652400
0.59607800 0.31395300 0.30787900 0.30863000
0.60000000 0.31598700 0.31002000 0.31073900
0.60392200 0.31800600 0.31214600 0.31284600
0.60784300 0.32002900 0.31427300 0.31496700
0.61176500 0.32206300 0.31642000 0.31711500
0.61568600 0.32410700 0.31858900 0.31930100
0.61960800 0.32616300 0.32078000 0.32152900
0.62352900 0.32822600 0.32299300 0.32379900
0.62745100 0.33024800 0.32517700 0.32609600
0.63137300 0.33228000 0.32735200 0.32835200
0.63529400 0.33433600 0.32954400 0.33061400
0.63921600 0.33644600 0.33177000 0.33288600
0.64313700 0.33861800 0.33405100 0.33519900
0.64705900 0.34085200 0.33638600 0.33755700
0.65098000 0.34312600 0.33875400 0.33994700
0.65490200 0.34542500 0.34113700 0.34235400
0.65882400 0.34772900 0.34351700 0.34475600
0.66274500 0.35006000 0.34592100 0.34716500
0.66666700 0.35240300 0.34831500 0.34957000
0.67058800 0.35471300 0.35066200 0.35192000
0.67451000 0.35703000 0.35301600 0.35423300
0.67843100 0.35934100 0.35534400 0.35653800
0.68235300 0.36160700 0.35761000 0.35879000
0.68627500 0.36384300 0.35984800 0.36098900
0.69019600 0.36609700 0.36207900 0.36318100
0.69411800 0.36836600 0.36429500 0.36535600
0.69803900 0.37063300 0.36647400 0.36750400
0.70196100 0.37288400 0.36862400 0.36961300
0.70588200 0.37516300 0.37077100 0.37170800
0.70980400 0.37749400 0.37295300 0.37381400
0.71372500 0.37990200 0.37519200 0.37596400
0.71764700 0.38234100 0.37744100 0.37815700
0.72156900 0.38481100 0.37970100 0.38035500
0.72549000 0.38732300 0.38200200 0.38258000
0.72941200 0.38987800 0.38434600 0.38485100
0.73333300 0.39245700 0.38672100 0.38717400
0.73725500 0.39503200 0.38910300 0.38952600
0.74117600 0.39756400 0.39146200 0.39188700
0.74509800 0.40007500 0.39382400 0.39423300
0.74902000 0.40254900 0.39619000 0.39659200
0.75294100 0.40497700 0.39853400 0.39896300
0.75686300 0.40737200 0.40087600 0.40133000
0.76078400 0.40971800 0.40320700 0.40370400
0.76470600 0.41201600 0.40551400 0.40608800
0.76862700 0.41425900 0.40778400 0.40847300
0.77254900 0.41652000 0.41007800 0.41085700
0.77647100 0.41886700 0.41247200 0.41330700
0.78039200 0.42134100 0.41501900 0.41588900
0.78431400 0.42399100 0.41775600 0.41867500
0.78823500 0.42683900 0.42070400 0.42169900
0.79215700 0.42992400 0.42391100 0.42496400
0.79607800 0.43328100 0.42739900 0.42853100
0.80000000 0.43688200 0.43116000 0.43236200
0.80392200 0.44067300 0.43511500 0.43643500
0.80784300 0.44462400 0.43922200 0.44058500
0.81176500 0.44877200 0.44351400 0.44485000
0.81568600 0.45311200 0.44797400 0.44924300
0.81960800 0.45761500 0.45262500 0.45375100
0.82352900 0.46241100 0.45758200 0.45852900
0.82745100 0.46744000 0.46274700 0.46354400
0.83137300 0.47258200 0.46798100 0.46866700
0.83529400 0.47775700 0.47325100 0.47384300
0.83921600 0.48279800 0.47835200 0.47895500
0.84313700 0.48757400 0.48329000 0.48384600
0.84705900 0.49228000 0.48812400 0.48865800
0.85098000 0.49686500 0.49277600 0.49333000
0.85490200 0.50141200 0.49736600 0.49793600
0.85882400 0.50602600 0.50198700 0.50259600
0.86274500 0.51072800 0.50672100 0.50737100
0.86666700 0.51549600 0.51156800 0.51223600
0.87058800 0.52028300 0.51638700 0.51711500
0.87451000 0.52488900 0.52098200 0.52179300
0.87843100 0.52912200 0.52504000 0.52604400
0.88235300 0.53277800 0.52852700 0.52967700
0.88627500 0.53590500 0.53149700 0.53275500
0.89019600 0.53858400 0.53401900 0.53537100
0.89411800 0.54088300 0.53616600 0.53761700
0.89803900 0.54287300 0.53802500 0.53956100
0.90196100 0.54461700 0.53970000 0.54127700
0.90588200 0.54622300 0.54123000 0.54286100
0.90980400 0.54772500 0.54264700 0.54433400
0.91372500 0.54913900 0.54398500 0.54572000
0.91764700 0.55049600 0.54526500 0.54705200
0.92156900 0.55182500 0.54650700 0.54835000
0.92549000 0.55314400 0.54774900 0.54963500
0.92941200 0.55450200 0.54901600 0.55095500
0.93333300 0.55591900 0.55032800 0.55232200
0.93725500 0.55742300 0.55171400 0.55376700
0.94117600 0.55905600 0.55321200 0.55532700
0.94509800 0.56089600 0.55489700 0.55707700
0.94902000 0.56303900 0.55684300 0.55910700
0.95294100 0.56559500 0.55914600 0.56153100
0.95686300 0.56875600 0.56205100 0.56454600
0.96078400 0.57288300 0.56588100 0.56853400
0.96470600 0.57828500 0.57102300 0.57385100
0.96862700 0.58524000 0.57788900 0.58082400
0.97254900 0.59339400 0.58612200 0.58906100
0.97647100 0.60195500 0.59465700 0.59765800
0.98039200 0.61059700 0.60299200 0.60620200
0.98431400 0.61949700 0.61149000 0.61498200
0.98823500 0.62841800 0.62007100 0.62376500
0.99215700 0.63828200 0.62981600 0.63358700
0.99607800 0.64797400 0.63932800 0.64324400
1.00000000 0.65752900 0.64853900 0.65273400
END_DATA
