CTI3   

DESCRIPTOR "Argyll Calibration Target chart information 3"
ORIGINATOR "Argyll dispread"
CREATED "Tue May 26 10:39:49 2020"
DEVICE_CLASS "DISPLAY"
SINGLE_DIM_STEPS "25"
COMP_GREY_STEPS "73"
DARK_REGION_EMPHASIS "1.6"
COLOR_REP "RGB_XYZ"
TARGET_INSTRUMENT "X-Rite i1 DisplayPro, ColorMunki Display"
DISPLAY_TYPE_REFRESH "NO"
INSTRUMENT_TYPE_SPECTRAL "NO"
LUMINANCE_XYZ_CDM2 "317.515499 334.057455 370.547733"
NORMALIZED_TO_Y_100 "YES"
VIDEO_LUT_CALIBRATION_POSSIBLE "YES"

BEGIN_ARGYLL_COLPROF_ARGS
-v -qh -aX -bn -C "No copyright. Created with DisplayCAL 3.8.9.3 and ArgyllCMS 2.1.2" -M "LP123WQ112604" -A "LG Display"
END_ARGYLL_COLPROF_ARGS

OBSERVER "1931_2"
USE_BLACK_POINT_COMPENSATION "NO"
BLACK_POINT_CORRECTION "0.0"
HIRES_B2A "YES"
HIRES_B2A_SIZE "-1"
SMOOTH_B2A "YES"
PATCH_SEQUENCE "OPTIMIZE_DISPLAY_RESPONSE_DELAY"

NUMBER_OF_FIELDS 7
BEGIN_DATA_FORMAT
SAMPLE_ID RGB_R RGB_G RGB_B XYZ_X XYZ_Y XYZ_Z
END_DATA_FORMAT

NUMBER_OF_SETS 825
BEGIN_DATA
1 100.00000 100.00000 100.00000 95.048170 100.00000 110.92340
2 1.9608000 1.9608000 1.9608000 0.1384641 0.1450035 0.1516605
3 3.9216000 3.9216000 3.9216000 0.3470678 0.3569849 0.4267967
4 5.8824000 5.8824000 5.8824000 0.5260044 0.5509404 0.6538795
5 9.8039000 9.8039000 9.8039000 1.0464509 1.1048556 1.2640068
6 13.726000 13.726000 13.726000 1.6837490 1.7940242 1.9394566
7 17.647000 17.647000 17.647000 2.5441970 2.6877602 2.9563739
8 21.569000 21.569000 21.569000 3.6172803 3.7859467 4.3364663
9 25.490000 25.490000 25.490000 4.9811026 5.2300400 5.8077709
10 29.412000 29.412000 29.412000 6.5652523 6.8696227 7.7619359
11 33.333000 33.333000 33.333000 8.4399465 8.8659693 9.9682290
12 37.255000 37.255000 37.255000 10.759549 11.297869 12.372776
13 41.176000 41.176000 41.176000 13.266304 13.905545 15.524114
14 45.098000 45.098000 45.098000 16.089421 16.926832 18.519700
15 49.020000 49.020000 49.020000 19.194298 20.111919 22.418009
16 52.941000 52.941000 52.941000 22.837686 23.925207 26.055487
17 56.863000 56.863000 56.863000 26.948086 28.181917 31.129809
18 60.784000 60.784000 60.784000 30.911584 32.615877 36.209181
19 64.706000 64.706000 64.706000 35.550395 37.265448 41.018501
20 68.627000 68.627000 68.627000 40.776277 42.722200 47.535466
21 72.549000 72.549000 72.549000 46.085799 48.375213 54.480012
22 76.471000 76.471000 76.471000 51.645512 54.397267 60.312495
23 80.392000 80.392000 80.392000 58.002246 60.993902 67.208231
24 84.314000 84.314000 84.314000 64.791641 67.901727 75.220029
25 88.235000 88.235000 88.235000 71.726547 75.557065 82.765516
26 92.157000 92.157000 92.157000 79.684545 83.922514 92.383398
27 96.078000 96.078000 96.078000 87.853674 92.074502 102.57918
28 0.0000000 71.125200 59.959200 23.929769 37.045377 35.473109
29 34.765600 72.909400 66.047000 26.387534 39.768673 42.452485
30 0.0000000 58.286200 67.974200 20.107340 25.305831 47.791287
31 35.853900 67.939200 74.200600 26.955976 35.112193 57.714839
32 100.00000 75.471800 77.457300 71.905547 63.003476 62.132219
33 26.505800 9.3803000 0.0000000 2.6141363 1.8853634 0.2966502
34 42.729000 13.015600 0.0000000 6.6859853 4.1549586 0.4566952
35 51.733200 22.972000 0.0000000 12.257682 8.2202448 0.9079214
36 58.682700 30.066000 26.075200 16.241051 12.108121 6.7339036
37 6.0976000 0.0000000 0.0000000 0.3736821 0.2312947 0.1203158
38 8.3333000 0.0000000 0.0000000 0.4564669 0.2730618 0.1268642
39 10.683800 0.0000000 0.0000000 0.6001136 0.3457079 0.1365140
40 13.157900 0.0000000 0.0000000 0.7636004 0.4283301 0.1463011
41 15.765800 0.0000000 0.0000000 0.9172568 0.5058713 0.1539257
42 18.518500 0.0000000 0.0000000 1.1213839 0.6091905 0.1639255
43 21.428600 0.0000000 0.0000000 1.4805579 0.7909599 0.1765662
44 24.509800 0.0000000 0.0000000 1.8560998 0.9812624 0.1877812
45 27.777800 0.0000000 0.0000000 2.4820238 1.2982331 0.2063952
46 31.250000 0.0000000 0.0000000 3.3384523 1.7319891 0.2310586
47 34.946200 0.0000000 0.0000000 4.4190528 2.2794963 0.2618978
48 38.888900 0.0000000 0.0000000 5.8826488 3.0221030 0.3043008
49 43.103500 0.0000000 0.0000000 7.4604538 3.8204328 0.3497751
50 47.619100 0.0000000 0.0000000 9.1997811 4.7036288 0.4140958
51 52.469100 0.0000000 0.0000000 11.453850 5.8432124 0.4992194
52 57.692300 0.0000000 0.0000000 13.959086 7.1130693 0.5813697
53 63.333300 0.0000000 0.0000000 16.726412 8.5162455 0.7294220
54 69.444400 0.0000000 0.0000000 20.958872 10.659157 0.9350815
55 76.087000 0.0000000 0.0000000 24.909801 12.662372 1.1270439
56 83.333300 0.0000000 0.0000000 30.248423 15.372938 1.3592634
57 88.102200 31.245200 22.908500 36.215107 22.152243 5.9529819
58 100.00000 40.977800 31.918100 48.588055 31.446664 10.733003
59 100.00000 57.719200 37.577800 53.762756 42.333679 16.393476
60 100.00000 72.312100 46.921100 61.601844 55.576389 24.561174
61 27.331800 25.808100 0.0000000 4.3411692 5.1437908 0.7643999
62 44.310200 30.254500 0.0000000 9.9392889 8.7871661 1.1991601
63 0.0000000 0.0000000 0.0000000 0.0781489 0.0822242 0.0903974
64 3.9683000 0.0000000 0.0000000 0.2404430 0.1639965 0.1083793
65 1.9380000 0.0000000 0.0000000 0.1316999 0.1093034 0.0966865
66 0.0000000 6.0976000 0.0000000 0.3016217 0.5133173 0.1906982
67 0.0000000 13.157900 0.0000000 0.7214613 1.3260021 0.3119802
68 0.0000000 24.509800 0.0000000 1.8806013 3.5729542 0.6309076
69 0.0000000 27.777800 0.0000000 2.4809989 4.7032308 0.8018347
70 0.0000000 31.250000 0.0000000 3.1838706 6.0715349 1.0142526
71 0.0000000 34.946200 0.0000000 3.8441601 7.3880339 1.2320211
72 0.0000000 38.888900 0.0000000 4.8832434 9.3344643 1.5822769
73 0.0000000 43.103500 0.0000000 6.0973122 11.660910 2.0123039
74 0.0000000 47.619100 0.0000000 7.3739111 14.134955 2.4476919
75 0.0000000 52.469100 0.0000000 9.3211445 17.893074 3.1086834
76 0.0000000 57.692300 0.0000000 11.422260 21.881833 3.8338461
77 0.0000000 63.333300 0.0000000 13.973106 26.797074 4.6534269
78 0.0000000 69.444400 0.0000000 17.375754 33.343849 5.7668584
79 0.0000000 76.087000 0.0000000 21.413703 41.111156 7.0639034
80 0.0000000 83.333300 0.0000000 26.120284 50.204047 8.4957136
81 61.702800 100.00000 0.0000000 40.924837 75.845125 12.541957
82 80.362400 100.00000 0.0000000 53.219075 81.571488 12.972918
83 0.0000000 0.0000000 1.9380000 0.0890658 0.0869091 0.1478189
84 0.0000000 0.0000000 3.9683000 0.1380243 0.1070744 0.3931414
85 0.0000000 0.0000000 6.0976000 0.1974116 0.1314604 0.6924152
86 0.0000000 0.0000000 8.3333000 0.2459186 0.1515035 0.9371361
87 0.0000000 0.0000000 10.683800 0.3291173 0.1858686 1.3507991
88 0.0000000 0.0000000 13.157900 0.4300299 0.2274467 1.8475787
89 0.0000000 0.0000000 15.765800 0.5274836 0.2677047 2.3364231
90 0.0000000 0.0000000 18.518500 0.7422198 0.3562949 3.4070401
91 0.0000000 0.0000000 21.428600 1.0366232 0.4787742 4.8873797
92 0.0000000 0.0000000 24.509800 1.2453623 0.5649844 5.9321557
93 0.0000000 0.0000000 27.777800 1.5967166 0.7102847 7.6960338
94 0.0000000 0.0000000 31.250000 1.9315595 0.8487011 9.3749749
95 0.0000000 0.0000000 34.946200 2.4259172 1.0556895 11.856191
96 0.0000000 0.0000000 38.888900 2.8951538 1.2497750 14.194683
97 0.0000000 0.0000000 43.103500 3.5858080 1.5358286 17.647025
98 0.0000000 0.0000000 47.619100 4.3426300 1.8547693 21.416792
99 0.0000000 0.0000000 52.469100 5.3317165 2.2624973 26.353647
100 0.0000000 0.0000000 57.692300 6.5662250 2.7787454 32.511126
101 0.0000000 0.0000000 63.333300 7.9627823 3.3660918 39.464683
102 0.0000000 0.0000000 69.444400 10.042317 4.2426258 49.815318
103 0.0000000 0.0000000 76.087000 12.201002 5.1578708 60.537562
104 0.0000000 0.0000000 83.333300 14.697708 6.2358683 72.958743
105 0.0000000 19.551200 79.899100 14.057736 7.5475643 64.861795
106 17.473100 41.948800 91.497000 22.853366 17.393003 89.638292
107 27.627400 51.036700 100.00000 30.002722 25.627691 101.86708
108 53.417100 64.257800 100.00000 42.634561 40.046524 103.46218
109 70.036100 79.151300 100.00000 58.083416 58.910037 106.59129
110 2.6042000 2.6042000 2.6042000 0.2032634 0.2256486 0.2450886
111 3.2808000 3.2808000 3.2808000 0.2504794 0.2857968 0.3142014
112 3.9683000 3.9683000 3.9683000 0.3460624 0.3559389 0.4268067
113 4.6667000 4.6667000 4.6667000 0.4509714 0.4755822 0.5409700
114 5.3763000 5.3763000 5.3763000 0.5137189 0.5249853 0.5803878
115 6.0976000 6.0976000 6.0976000 0.5791570 0.5960045 0.7061688
116 6.8306000 6.8306000 6.8306000 0.6444271 0.6767467 0.7973733
117 7.5758000 7.5758000 7.5758000 0.7326996 0.7680339 0.9057338
118 8.3333000 8.3333000 8.3333000 0.8171021 0.8667881 0.9640085
119 9.1036000 9.1036000 9.1036000 0.9745144 1.0358855 1.1444227
120 9.8870000 9.8870000 9.8870000 1.0384820 1.0962836 1.2600158
121 10.683800 10.683800 10.683800 1.2164834 1.2878681 1.4670785
122 11.494200 11.494200 11.494200 1.2776205 1.3509772 1.5359794
123 12.318800 12.318800 12.318800 1.4296987 1.4987345 1.6912133
124 13.157900 13.157900 13.157900 1.6385163 1.7215400 1.9228681
125 14.011800 14.011800 14.011800 1.7435709 1.8600364 2.0221884
126 14.881000 14.881000 14.881000 1.8886795 2.0162587 2.1874908
127 15.765800 15.765800 15.765800 2.0631517 2.1439450 2.4429989
128 16.666700 16.666700 16.666700 2.2596147 2.3832875 2.6400675
129 17.584100 17.584100 17.584100 2.5191478 2.6599542 2.9407167
130 18.518500 18.518500 18.518500 2.6500425 2.7729594 3.2346158
131 19.470400 19.470400 19.470400 2.9860652 3.1574323 3.4781089
132 20.440200 20.440200 20.440200 3.2896533 3.4799000 3.8307836
133 21.428600 21.428600 21.428600 3.5905152 3.7453516 4.3062488
134 22.435900 22.435900 22.435900 3.8343929 4.0650554 4.4640948
135 23.462800 23.462800 23.462800 4.1591007 4.3598760 4.9922893
136 24.509800 24.509800 24.509800 4.4561694 4.7185878 5.2864370
137 25.577600 25.577600 25.577600 4.9295885 5.1779349 5.7715977
138 26.666700 26.666700 26.666700 5.3504165 5.6190469 6.2635412
139 27.777800 27.777800 27.777800 5.8399806 6.1248310 6.9527459
140 28.911600 28.911600 28.911600 6.2735576 6.5959561 7.3414079
141 30.068700 30.068700 30.068700 6.8244279 7.1541774 8.1123107
142 31.250000 31.250000 31.250000 7.4500543 7.8868050 8.5800428
143 32.456100 32.456100 32.456100 7.9480074 8.3305220 9.4305337
144 33.687900 33.687900 33.687900 8.5411367 8.9613205 10.153821
145 34.946200 34.946200 34.946200 9.1888342 9.6443270 10.927473
146 36.231900 36.231900 36.231900 9.8204846 10.356377 11.463974
147 37.545800 37.545800 37.545800 10.915109 11.427819 12.851398
148 38.888900 38.888900 38.888900 11.438100 11.985100 13.492679
149 40.262200 40.262200 40.262200 12.659673 13.360613 14.777832
150 41.666700 41.666700 41.666700 13.242864 13.797644 15.416163
151 43.103500 43.103500 43.103500 14.446947 15.262068 16.862547
152 44.573600 44.573600 44.573600 15.563070 16.360640 17.984559
153 46.078400 46.078400 46.078400 16.440332 17.363153 19.214022
154 47.619100 47.619100 47.619100 17.795975 18.632895 20.920626
155 49.196800 49.196800 49.196800 18.987387 19.882688 22.310109
156 50.813000 50.813000 50.813000 20.860362 22.015663 24.344874
157 52.469100 52.469100 52.469100 22.119195 23.139076 25.359316
158 54.166700 54.166700 54.166700 23.624108 24.946200 27.552061
159 55.907200 55.907200 55.907200 25.844473 27.166905 29.902916
160 57.692300 57.692300 57.692300 27.215986 28.737718 31.721080
161 59.523800 59.523800 59.523800 29.362051 30.727293 34.174886
162 61.403500 61.403500 61.403500 31.636336 33.443779 36.852902
163 63.333300 63.333300 63.333300 33.169040 34.870602 38.772706
164 65.315300 65.315300 65.315300 35.991396 37.621678 42.294664
165 67.351600 67.351600 67.351600 39.256883 41.408547 45.351911
166 69.444400 69.444400 69.444400 41.757409 43.733842 48.923199
167 71.596200 71.596200 71.596200 44.884926 46.788619 52.765708
168 73.809500 73.809500 73.809500 47.531432 50.078077 55.343344
169 76.087000 76.087000 76.087000 50.990300 53.414234 60.196375
170 78.431400 78.431400 78.431400 54.585358 57.324193 63.729963
171 80.845800 80.845800 80.845800 58.407267 61.399282 68.113843
172 83.333300 83.333300 83.333300 62.310566 65.536282 72.550973
173 85.897400 85.897400 85.897400 66.858686 70.544013 78.111766
174 88.541700 88.541700 88.541700 71.861117 75.395344 83.717228
175 91.269800 91.269800 91.269800 77.941121 81.832289 90.666594
176 0.0000000 48.267100 30.031400 8.7870963 14.941217 8.8886685
177 0.0000000 56.678700 54.419300 15.748240 22.657565 28.563833
178 0.0000000 70.195700 69.963100 26.507695 37.077097 51.433855
179 82.433100 24.303200 0.0000000 31.581926 17.146352 1.6600291
180 100.00000 23.686200 19.325700 43.851454 23.770137 4.6047288
181 80.243200 0.0000000 16.907000 29.532321 14.964797 3.5916205
182 78.964800 30.145500 43.362500 31.984247 18.932816 17.509998
183 79.964500 49.050000 57.050400 38.781292 29.324700 31.163949
184 56.210700 38.103600 34.827500 17.758965 14.926657 11.290054
185 74.227200 58.410800 36.181500 33.439680 32.531257 13.277578
186 90.712100 62.184000 68.907300 56.105772 45.026175 48.397718
187 100.00000 63.205700 100.00000 73.067490 55.441909 105.33339
188 65.023100 0.0000000 100.00000 35.534365 17.330772 100.31898
189 71.236600 25.429300 100.00000 40.980697 23.362036 100.99948
190 84.885400 45.509700 100.00000 53.566896 36.300645 102.35558
191 100.00000 47.164700 100.00000 67.329367 44.257364 103.87168
192 0.0000000 9.1476000 16.741900 0.9234903 0.9795174 2.6528406
193 0.0000000 20.684800 21.296000 2.1480861 2.9469008 4.2460196
194 0.0000000 21.617600 30.070000 2.9917935 3.3615978 8.2534344
195 0.0000000 73.870200 84.128800 33.503430 42.523440 78.755557
196 23.648400 80.702700 100.00000 43.139132 51.631600 106.43029
197 49.159800 82.361000 100.00000 50.777710 56.854252 106.80329
198 0.0000000 17.770100 100.00000 21.194362 10.976138 99.104863
199 0.0000000 29.020000 100.00000 22.692536 13.890935 99.511524
200 26.465500 70.821900 100.00000 38.338381 41.425337 104.12488
201 51.348700 74.454100 100.00000 46.943831 48.928474 104.79319
202 22.710800 8.9048000 17.360700 2.6569969 1.7626741 2.8760896
203 47.424600 25.411400 26.206400 10.726659 8.0983235 6.3672468
204 77.603100 47.288700 29.647800 30.239593 24.926040 10.073121
205 91.561800 65.352800 34.099200 49.067146 44.399274 13.407679
206 100.00000 100.00000 44.749900 75.999447 91.567491 22.278169
207 39.207100 55.835000 11.360500 12.892684 21.317231 3.6165096
208 58.951900 55.384400 12.698200 21.230843 24.400028 3.8541411
209 100.00000 84.532300 0.0000000 65.643723 67.414656 9.5300570
210 100.00000 84.248100 25.135800 65.843504 67.519716 10.579632
211 0.0000000 91.269800 0.0000000 32.241498 62.033854 10.393702
212 0.0000000 100.00000 0.0000000 38.742212 74.567942 12.386186
213 36.855200 100.00000 0.0000000 38.742212 74.567942 12.386186
214 83.186200 100.00000 80.260300 69.814113 87.557162 68.610254
215 89.260000 100.00000 90.133500 79.854036 92.339403 87.859668
216 100.00000 100.00000 88.617400 89.034956 96.568422 85.432732
217 15.190500 7.5882000 38.291100 3.5733247 1.9203785 12.502129
218 23.077500 33.632000 49.342800 8.8848135 8.9036313 22.340549
219 49.787300 38.228500 48.632000 16.804772 14.091945 21.912498
220 49.907500 55.573000 48.960500 21.104882 24.859140 22.534269
221 80.215300 66.918400 58.355700 45.041717 43.785682 33.157244
222 100.00000 76.546000 66.225900 68.030709 62.311424 45.219091
223 92.527400 16.490400 39.316600 43.626003 21.941173 14.445951
224 100.00000 24.789700 48.618600 47.792843 26.205263 22.176179
225 100.00000 42.684100 55.880900 52.745674 34.118481 29.591465
226 0.0000000 1.9380000 0.0000000 0.1079434 0.1396005 0.1087333
227 14.283200 7.1562000 0.0000000 0.9925819 0.8844371 0.2217704
228 26.162700 43.003300 34.572900 8.5895519 12.524552 10.710843
229 39.085500 52.607900 47.569000 15.865630 20.281689 20.815196
230 45.100600 63.422800 66.808500 25.731393 31.266624 44.430439
231 51.941700 63.004300 81.029600 33.240730 33.981080 68.242473
232 72.350100 68.125600 100.00000 53.909857 48.906554 104.44119
233 51.499300 8.4495000 49.567200 14.735298 7.0902072 23.616542
234 51.466800 27.273400 50.544800 16.299941 10.676087 24.140893
235 75.430700 37.596700 62.555400 34.654653 22.038213 39.795039
236 31.060100 44.281900 26.624900 9.0760600 13.409334 6.8792050
237 32.069900 45.608700 62.057200 15.719070 16.230640 37.372543
238 49.609700 76.405300 66.498100 32.491128 45.516146 43.757228
239 86.482000 78.235700 100.00000 68.450860 64.048108 107.03529
240 100.00000 88.836900 100.00000 86.568931 83.327012 109.18270
241 60.471200 0.0000000 59.528500 21.638693 10.363957 36.023420
242 68.085300 0.0000000 80.973800 32.803649 15.473068 69.344246
243 89.477200 0.0000000 86.257900 52.701084 25.413911 82.934447
244 100.00000 0.0000000 100.00000 60.945693 31.065484 101.21248
245 69.316300 0.0000000 34.991800 23.605098 11.797310 12.170156
246 84.199000 0.0000000 48.645100 37.367729 18.562565 23.759172
247 79.972300 0.0000000 58.807500 35.247864 17.282072 35.822370
248 100.00000 0.0000000 66.167500 50.279038 25.113860 42.102254
249 62.156600 35.843900 0.0000000 18.940387 14.367896 1.8587556
250 100.00000 70.216300 0.0000000 57.121974 50.760258 6.8207988
251 100.00000 72.238600 27.600900 58.995068 53.531015 9.9049538
252 31.243300 67.131100 0.0000000 16.186431 31.039024 5.4111196
253 54.196600 83.525900 0.0000000 28.954650 51.455450 8.6391650
254 100.00000 100.00000 0.0000000 72.964400 90.146658 13.576449
255 100.00000 100.00000 24.860300 73.357201 90.345458 13.575229
256 0.0000000 52.895400 81.485700 22.182065 22.042983 70.976799
257 0.0000000 61.586500 100.00000 32.315008 32.250056 103.02218
258 29.835800 61.415800 100.00000 34.299242 33.265529 103.06928
259 11.328800 20.176500 38.822100 4.0989862 3.5837173 13.323541
260 27.837200 20.377700 50.523500 8.2173040 5.5590377 23.244020
261 62.126800 51.018800 69.656100 30.761214 26.285303 49.484021
262 73.648800 50.667600 78.189900 40.572686 30.540522 63.254292
263 0.6361000 0.6361000 0.6361000 0.0818395 0.0861360 0.0954757
264 1.2821000 1.2821000 1.2821000 0.0916007 0.0953142 0.1106187
265 1.9380000 1.9380000 1.9380000 0.1378781 0.1444435 0.1521000
266 0.0000000 10.776900 10.786800 0.7937598 1.0649586 1.5739189
267 15.775400 12.595400 24.504100 2.4144479 1.9267965 5.2178924
268 30.399900 100.00000 66.081000 44.984266 76.556197 45.445141
269 58.705000 100.00000 78.944500 53.852197 80.706296 64.484965
270 69.124200 100.00000 89.340400 63.992140 85.512697 84.158619
271 0.0000000 61.285000 45.115600 15.800100 25.951302 18.794401
272 0.0000000 82.445000 54.698400 29.317051 49.854516 29.690086
273 0.0000000 85.804800 72.972900 37.164769 57.643884 54.865763
274 0.0000000 100.00000 100.00000 56.058742 78.154910 110.10250
275 27.756700 100.00000 100.00000 56.058742 78.154910 110.10250
276 0.0000000 86.085500 100.00000 45.230767 57.069123 107.30079
277 22.923800 90.499700 100.00000 49.218636 63.814068 108.17169
278 50.271800 100.00000 100.00000 61.042363 80.682366 110.24650
279 0.0000000 14.927700 57.643000 6.8940866 3.9651181 30.881873
280 0.0000000 28.562900 74.157500 13.179134 8.9369254 54.962793
281 23.271200 11.710900 73.608700 12.853594 6.1356021 53.799920
282 53.633900 21.738400 100.00000 31.276975 17.246632 100.68878
283 90.241300 100.00000 100.00000 85.394038 94.210777 111.04310
284 100.00000 100.00000 100.00000 94.424109 99.271368 111.39590
285 0.0000000 35.989700 16.235800 4.3625233 7.8156039 3.1511945
286 54.847700 40.440600 29.317400 16.598422 15.276588 8.1630079
287 68.167700 41.276000 33.493000 23.731308 19.157487 11.187344
288 100.00000 47.673200 46.730700 51.947212 35.949285 21.399697
289 100.00000 26.631800 0.0000000 43.251082 23.500456 2.3028246
290 100.00000 43.362500 0.0000000 46.973061 30.636773 3.5566154
291 100.00000 57.672900 0.0000000 51.358231 39.378232 4.9984467
292 100.00000 60.537600 22.359600 53.157265 42.309559 7.2093967
293 100.00000 63.392300 53.444200 58.495557 48.169752 29.458395
294 11.133500 0.0000000 12.876400 0.9786669 0.5057433 1.8212304
295 25.026700 0.0000000 20.611700 3.1432090 1.5564907 4.3230131
296 25.399800 43.245000 81.171700 19.806679 16.633481 67.772662
297 40.479800 50.723600 89.613800 28.493509 24.221638 84.964861
298 77.542400 36.450400 0.0000000 29.808542 19.636498 2.3170596
299 82.039900 49.722800 0.0000000 36.290297 28.263057 3.7304318
300 0.0000000 100.00000 30.041300 38.733662 73.924121 14.340321
301 0.0000000 100.00000 53.127400 42.040000 75.295424 30.794708
302 0.0000000 100.00000 71.907100 46.799571 77.821300 52.777708
303 31.849400 100.00000 79.120700 48.955835 78.710172 63.605753
304 0.0000000 84.954000 85.846200 41.090778 57.222203 80.789932
305 0.0000000 100.00000 87.535100 52.162143 80.057315 79.635899
306 39.530900 100.00000 90.053800 53.357325 80.565246 85.634053
307 0.0000000 32.626200 24.909200 4.2578050 6.7056853 5.8795836
308 0.0000000 32.077400 35.196900 5.1262250 6.7245574 11.296204
309 0.0000000 44.749600 50.694500 10.611178 13.644484 24.318504
310 0.0000000 35.435200 49.432000 7.9715855 8.7526440 22.720970
311 0.0000000 36.677200 64.752700 11.971732 10.973118 41.094962
312 0.0000000 48.269700 66.128000 15.451689 16.932532 44.561159
313 0.0000000 3.9683000 0.0000000 0.1881608 0.2934448 0.1485292
314 0.0000000 15.765800 0.0000000 0.8658143 1.6088328 0.3522081
315 13.529500 21.170100 8.6250000 1.9253837 2.9374978 1.1400409
316 67.700700 28.024600 35.713500 22.751826 14.253285 11.588005
317 76.212500 33.714000 72.193200 37.088429 21.731762 55.007573
318 56.691000 23.959600 62.498000 21.120972 11.982330 38.875247
319 60.479300 28.308200 76.077000 27.237526 15.802109 60.015055
320 27.633400 0.0000000 60.504100 9.6741091 4.3072919 34.997908
321 39.368500 22.481000 63.904700 14.031746 8.5191965 38.686996
322 0.0000000 11.955600 27.595900 1.8658133 1.5809187 6.7147822
323 0.0000000 11.484600 38.677200 3.0880290 2.0134257 13.041229
324 0.0000000 85.625600 39.422800 29.052250 53.148784 17.799389
325 52.596100 100.00000 26.175400 38.413522 73.752650 12.853518
326 70.729100 100.00000 29.375600 47.137361 78.185761 13.411199
327 0.0000000 18.518500 0.0000000 1.1417827 2.1457980 0.4198445
328 0.0000000 21.428600 0.0000000 1.5128697 2.8586856 0.5321648
329 15.177900 22.247500 0.0000000 2.0969565 3.2241415 0.5580014
330 34.466000 29.978400 58.721300 12.414893 9.4116815 32.135201
331 48.372100 40.455300 63.836300 19.929490 16.529681 38.973027
332 68.345800 40.288600 100.00000 41.801499 27.745226 101.81328
333 84.885200 62.016800 100.00000 59.129289 47.478361 104.98819
334 100.00000 77.434000 100.00000 79.430075 69.063930 107.36329
335 31.137500 0.0000000 13.276800 3.9930074 2.0263137 2.2273297
336 36.063100 9.4971000 13.856100 5.0571519 2.9667409 2.0815571
337 46.189800 70.464800 33.050800 21.681524 35.568994 11.565605
338 60.552900 82.842700 33.129400 32.960569 51.962411 12.735277
339 68.628800 86.673700 56.593400 44.501155 60.745741 32.676812
340 86.564500 100.00000 66.307600 67.024256 86.989420 46.638694
341 100.00000 100.00000 78.308600 84.846757 94.647738 65.897688
342 22.123800 0.0000000 42.147700 4.9516070 2.2614643 15.838794
343 43.052500 0.0000000 53.100200 11.846181 5.5724518 25.962186
344 72.047100 70.472600 61.404700 41.180918 44.251984 36.826242
345 87.063300 74.681500 88.144100 62.974127 57.289693 83.177417
346 44.275500 0.0000000 14.379500 8.2427978 4.1755786 2.5837061
347 43.634600 22.336100 39.518000 10.790449 7.1297343 14.421431
348 41.114300 0.0000000 26.233200 7.7133544 3.8279348 6.7752824
349 54.027500 0.0000000 26.155400 13.157634 6.5900841 6.9168729
350 65.178800 16.191200 37.306700 20.484851 10.517747 12.929118
351 50.147900 0.0000000 39.105300 12.665193 6.1942752 14.753102
352 65.258400 0.0000000 44.505000 21.611063 10.643637 19.664963
353 100.00000 23.684100 64.447800 50.886870 27.271155 39.796459
354 100.00000 41.912100 67.224000 54.964359 34.762332 43.389517
355 100.00000 0.0000000 34.564100 44.150025 22.260454 12.213876
356 100.00000 0.0000000 49.509400 46.543560 23.394756 23.574762
357 0.0000000 8.3333000 0.0000000 0.3912731 0.6851727 0.2217132
358 0.0000000 10.683800 0.0000000 0.5499683 0.9939824 0.2667471
359 11.006500 12.241200 0.0000000 1.0462617 1.3596132 0.3005754
360 21.445000 15.750200 0.0000000 2.2157816 2.1993401 0.3738177
361 28.645300 43.052800 0.0000000 6.8863010 11.737310 2.0286060
362 37.178300 56.148400 73.965900 23.518948 25.092160 56.352236
363 0.0000000 0.0000000 91.269800 18.206806 7.7417467 90.316293
364 0.0000000 0.0000000 100.00000 20.419121 9.3887554 99.085433
365 0.0000000 39.057100 100.00000 24.787811 17.912264 100.24978
366 0.0000000 50.833100 100.00000 28.183018 24.509149 101.12538
367 0.0000000 73.145200 100.00000 37.553500 42.372939 104.52379
368 22.640300 70.148400 13.527700 17.705675 33.975310 5.8749597
369 26.638800 86.986300 17.794700 28.574209 54.928968 9.2315803
370 51.227100 100.00000 43.838800 40.335706 74.514522 22.513279
371 69.374800 100.00000 51.750600 50.667019 78.956422 29.692466
372 29.806500 21.786600 10.086800 4.4035342 4.2504098 1.5260765
373 29.394800 32.586500 20.946300 6.0353981 7.4128810 4.1981249
374 27.996400 55.593700 29.219800 11.423360 20.360579 8.5996399
375 0.0000000 54.592700 20.305900 10.369128 19.300197 5.2903324
376 0.0000000 75.655500 22.253500 20.745361 39.613703 7.5812186
377 45.630100 62.626800 0.0000000 16.791492 27.286225 4.6485329
378 64.667200 62.484000 0.0000000 26.793575 31.708495 4.9827707
379 73.990700 77.941700 32.212200 39.770635 50.518898 11.509094
380 66.896000 76.512200 76.013100 44.697886 50.875809 60.174565
381 66.111500 100.00000 100.00000 68.137039 84.157664 110.54120
382 79.414200 100.00000 100.00000 77.051999 89.339836 110.84460
383 31.123400 0.0000000 80.014300 16.222191 7.1192633 64.827235
384 48.491300 0.0000000 100.00000 27.887648 13.255643 99.329504
385 83.082900 0.0000000 100.00000 46.717850 23.703517 100.93488
386 91.269800 0.0000000 0.0000000 37.250299 18.917016 1.7086172
387 100.00000 0.0000000 0.0000000 42.004020 21.336742 1.9207117
388 100.00000 0.0000000 21.425400 42.816592 21.655912 5.8578286
389 100.00000 26.794700 36.625000 45.928459 25.683521 12.945128
390 100.00000 41.247900 81.723300 59.453549 36.448496 66.476239
391 100.00000 58.372100 85.903900 66.234055 48.297993 74.684688
392 29.018700 11.585400 28.492000 4.6192375 2.8257355 7.2988077
393 45.859300 20.135500 28.509600 9.9014078 6.5183929 7.2647417
394 73.215900 0.0000000 24.687300 24.696480 12.456591 6.4063199
395 86.870900 0.0000000 36.471800 37.677120 18.911736 13.348339
396 100.00000 0.0000000 82.484100 55.121449 27.306665 67.637832
397 100.00000 24.351200 82.205900 56.357462 29.972001 67.193101
398 100.00000 27.159400 100.00000 62.837067 35.470714 102.01338
399 34.760800 81.368400 65.857200 31.206525 49.562446 42.412515
400 58.313200 87.036500 70.514300 42.769301 60.446860 50.916174
401 85.971200 90.022700 100.00000 76.230027 78.913242 109.22970
402 27.771000 0.0000000 100.00000 22.187145 10.177856 99.184283
403 31.496900 21.766000 100.00000 24.340720 13.548974 99.591184
404 49.157600 51.778500 100.00000 35.764856 29.139159 102.49768
405 68.170800 55.193400 100.00000 45.962609 36.590166 103.14538
406 46.423900 49.900200 0.0000000 13.667975 18.084154 2.9508651
407 82.007600 64.814800 0.0000000 40.925187 39.219822 5.6635162
408 83.412700 81.783800 0.0000000 48.198364 58.340675 8.8330304
409 16.709100 66.865400 46.041500 18.747837 31.583405 19.870353
410 27.532100 77.558400 49.819900 25.003651 42.735840 24.672254
411 36.299000 90.764600 52.981800 34.792603 61.249252 28.874314
412 52.563600 100.00000 63.219300 44.965236 75.802025 41.712523
413 71.187800 100.00000 70.073800 57.766315 82.095769 52.932898
414 17.367500 33.698500 0.0000000 3.5114843 6.7356914 1.1518829
415 34.968600 36.343400 0.0000000 7.2753719 9.4214585 1.5060768
416 52.863700 42.883800 0.0000000 15.525090 15.429808 2.2789225
417 67.860900 50.443300 0.0000000 25.914683 23.824087 3.4447192
418 76.734800 68.230200 39.075500 39.448114 42.191959 15.239413
419 100.00000 85.371700 46.654100 68.710240 70.336493 24.530534
420 100.00000 86.276700 64.217700 72.606229 72.879468 44.080548
421 100.00000 88.049300 79.462100 78.802843 78.456281 67.482921
422 100.00000 88.132700 89.308200 82.497232 80.025325 85.901923
423 40.624200 43.825100 27.341100 11.656661 14.254855 7.1448196
424 51.683700 59.992500 42.797900 21.828614 27.632776 17.475568
425 61.819900 75.774200 59.881400 36.288737 46.150138 35.646219
426 94.086000 94.086000 94.086000 82.814252 86.467329 97.863580
427 35.666700 21.986800 86.476100 20.584121 11.072438 77.118523
428 35.775400 37.338300 86.336700 22.421135 15.890749 76.121271
429 0.0000000 41.440300 81.465700 18.579917 15.248858 69.303266
430 8.4788000 62.535200 89.406800 29.139160 30.405902 88.842070
431 40.190400 70.682900 89.361500 35.491195 40.011284 88.142168
432 40.879200 87.924800 88.458700 43.743804 60.765081 86.559885
433 21.238400 82.327000 81.823400 37.538610 52.660133 72.674753
434 16.899300 74.976700 69.692600 28.820350 42.052259 50.699243
435 13.818300 91.518700 73.119200 40.931467 65.428432 54.536432
436 16.581000 94.974400 88.246400 49.221646 72.761868 83.842419
437 15.553900 54.555100 60.744800 16.413292 21.216231 37.348793
438 49.931700 56.208800 68.092900 25.841623 26.707944 46.364724
439 72.588100 64.073900 86.483900 46.480560 41.413627 78.043735
440 85.908700 68.325600 91.034500 60.423561 51.171149 89.632072
441 65.077100 10.591600 53.648400 23.042477 11.217809 28.424153
442 95.070800 15.304300 53.350300 46.462820 23.116846 27.502271
443 80.316300 14.925200 44.051500 32.268168 16.065000 18.410430
444 98.552900 37.477400 45.544400 48.748885 29.781991 19.041952
445 88.916100 39.440500 38.066900 38.702542 26.184103 14.478001
446 90.093200 50.851200 41.786500 42.712351 33.090298 18.167470
447 89.823600 56.241700 54.007500 47.552972 38.072570 28.293333
448 100.00000 61.796700 64.285700 60.773172 47.676741 41.269152
449 39.797800 15.199200 29.934200 7.7536888 4.6537117 8.1857979
450 41.237900 25.877500 33.985500 9.7125164 7.4633351 10.461562
451 66.694600 31.107100 44.314400 23.857258 15.280058 18.340570
452 31.059500 7.7815000 20.076400 4.2913644 2.3963826 3.7995288
453 48.052500 27.868900 19.501500 10.693129 8.6751838 4.1369897
454 56.221400 49.125300 44.899000 21.232303 20.948811 18.051509
455 64.852600 48.663000 45.758400 25.688513 22.971495 19.521063
456 66.144900 56.471100 59.510400 31.744886 29.630220 34.391066
457 70.604800 60.729400 69.334100 38.603802 35.592094 49.185300
458 78.586100 53.236300 23.340800 31.958807 28.582248 7.7682410
459 81.847100 65.755500 47.945000 43.280733 41.836838 21.986178
460 85.085200 75.358900 60.744500 52.449563 53.497885 37.121653
461 60.536600 59.560800 67.757100 31.329255 31.319564 45.424881
462 80.308800 67.913700 71.884700 48.792305 45.535636 52.322667
463 92.491500 76.938200 73.900300 65.017282 60.812791 55.482924
464 92.394000 86.137400 81.103200 71.341456 72.219697 68.470584
465 43.977800 39.851400 11.663700 10.940119 12.277281 2.2091154
466 61.478500 48.680700 15.361800 20.342111 20.087209 3.9409973
467 72.814800 58.320200 25.634500 30.699354 30.735813 8.0591216
468 17.997000 39.813700 17.679500 5.3890806 9.7408282 3.4839803
469 21.526500 47.435100 30.383500 8.3239583 14.097415 8.5688848
470 23.824300 47.795400 43.387300 10.226808 15.134437 17.284238
471 0.0000000 0.0000000 0.0000000 0.0786165 0.0826843 0.0915114
472 86.026900 23.607200 100.00000 49.789287 27.865976 101.50428
473 100.00000 100.00000 100.00000 94.145618 98.921388 111.60550
474 55.360300 39.077500 57.915200 21.310423 16.529871 32.208531
475 56.100700 43.335800 75.000200 27.067786 20.815250 56.177156
476 64.572400 43.449300 89.673300 36.857828 25.293551 84.774901
477 28.886400 10.914200 55.939200 8.8112222 4.5473805 28.637408
478 44.922100 16.457800 56.580800 13.822176 7.4782211 30.541748
479 85.081800 15.245000 57.555400 39.054423 19.237287 33.420254
480 92.585200 14.580300 69.162700 49.763987 24.364508 51.073814
481 10.689600 4.5152000 11.636200 0.9707257 0.6773967 1.6324160
482 18.571000 6.1655000 21.231600 2.1514569 1.3052911 4.0796261
483 34.265100 51.241500 20.848700 10.674549 17.514613 4.9013745
484 18.682000 53.459900 14.897100 9.3820387 17.927904 3.4320361
485 17.566700 69.835100 32.939800 18.332086 33.377679 11.673185
486 15.347300 83.409200 46.092800 28.631709 50.838678 22.437779
487 24.347300 86.156800 77.099300 38.184131 57.324093 62.285470
488 57.986900 89.900700 84.690600 48.644805 65.817602 76.762703
489 8.8392000 8.0313000 30.391400 2.2075953 1.3805553 7.7417516
490 24.924800 7.1650000 33.529200 4.2847886 2.2774333 9.8966961
491 32.144500 9.6450000 45.596400 7.3492956 3.8421529 18.494826
492 32.220300 66.887600 52.065800 19.839779 31.980746 25.389606
493 43.747000 77.918800 77.155200 33.936391 46.544259 62.353500
494 64.313500 83.130500 84.903900 48.745425 58.237375 77.260534
495 13.996100 52.916500 42.533200 11.801121 18.665755 16.213595
496 22.197800 57.116700 53.584200 15.587350 22.678525 27.450481
497 32.409000 63.135800 63.862800 20.562561 28.510038 40.831101
498 12.658100 37.203600 34.353200 6.1506973 8.9374944 10.845813
499 22.692400 43.908300 47.257100 10.151007 13.205373 21.128386
500 36.603200 54.479900 55.387800 17.091023 21.685712 29.379565
501 38.177400 62.441400 55.883300 20.005600 28.089637 29.726226
502 0.0000000 24.122300 53.965600 7.0587584 5.5058206 27.188939
503 14.583000 29.404800 59.130100 9.2062393 7.5496183 33.097133
504 28.204600 35.638500 61.357800 12.460813 10.894948 35.296378
505 86.680400 38.812400 60.565000 43.609323 26.449823 36.152250
506 87.837300 49.878100 66.076700 48.296374 33.569899 43.556327
507 0.0000000 0.0000000 0.0000000 0.0786194 0.0826817 0.0916764
508 9.1635000 4.8250000 22.123500 1.3635002 0.7989829 4.1526028
509 13.029700 10.796800 49.022600 5.1883875 2.8193395 20.999819
510 39.577200 9.8778000 66.719500 13.937156 6.7054033 42.320964
511 53.292200 12.422100 67.211400 19.400988 9.3857724 44.533909
512 89.381600 30.541500 69.292300 47.897093 25.738882 51.387625
513 75.028000 23.512200 60.547000 31.877477 16.694941 37.075242
514 91.359500 45.818300 73.376000 53.563666 33.925900 56.195756
515 100.00000 58.748100 73.668800 62.529476 47.006830 54.836393
516 49.855600 0.0000000 74.781000 20.329670 9.3096073 57.006488
517 76.215200 31.865100 85.810700 40.952147 22.729155 79.736449
518 67.074900 13.848300 74.128300 29.261401 13.892045 58.042510
519 68.693000 18.785600 86.811100 35.079274 17.308362 80.028710
520 22.085300 51.781500 77.954900 20.454401 20.881571 63.645033
521 22.022300 63.563600 83.926600 27.265116 30.573782 76.435962
522 25.910800 81.340200 87.601200 38.972353 51.761931 84.541660
523 68.393200 9.0821000 11.816000 20.177210 10.250676 1.9690248
524 74.773200 24.299700 10.527100 23.170207 13.952295 2.3390577
525 90.271100 43.236100 9.9036000 41.159248 27.615086 3.2897488
526 100.00000 44.578200 20.451200 47.730963 31.892555 5.6081151
527 100.00000 100.00000 62.607700 79.674665 92.762544 42.071944
528 0.0000000 65.605800 84.441600 28.571589 32.568387 78.475196
529 10.623300 75.253900 91.032500 36.836938 44.500814 93.626791
530 16.475600 5.6648000 9.5322000 1.3553314 0.8789951 1.2585256
531 26.360900 7.4016000 8.7758000 2.7076412 1.7339541 1.1589912
532 46.349500 27.953700 9.3001000 9.4191337 7.8830340 1.6696331
533 46.637400 79.139800 14.162100 23.403207 43.900403 7.5247884
534 64.709100 91.088100 13.840900 38.087871 63.637118 10.460072
535 86.058800 100.00000 23.870300 57.925196 83.460452 13.374359
536 85.407400 100.00000 47.454000 60.970423 84.103694 26.471498
537 13.126500 57.359200 32.944800 12.381642 21.651952 10.689893
538 17.520300 86.274400 32.734300 28.304489 53.169944 13.186738
539 56.925800 88.434900 47.142700 36.968968 59.836919 23.508682
540 43.466100 57.461600 33.286800 16.580142 23.785007 11.041403
541 44.285200 63.216700 46.590700 20.468321 28.819619 20.754945
542 51.920100 67.215400 57.381500 27.118016 35.190253 31.043229
543 67.419700 17.628600 46.692500 23.720198 12.104481 21.100106
544 69.044800 18.636100 65.529500 28.461869 14.262025 44.139198
545 80.852500 49.633300 72.832800 43.911344 31.316344 55.523454
546 88.085500 61.473300 76.857100 55.374680 43.858423 61.561548
547 52.925400 38.820600 13.578700 14.424687 13.422904 2.6989255
548 66.666800 43.751400 14.029100 21.301383 18.826616 3.8283230
549 73.671500 74.790200 12.262100 37.047918 46.520369 7.2449858
550 77.016100 87.820500 11.674200 44.842186 63.064486 9.9808130
551 91.504100 90.893800 11.197000 59.996850 73.768580 11.209644
552 12.835800 39.089700 28.142900 5.8773337 9.5862009 7.1347395
553 30.762100 40.841300 40.919400 9.8007646 11.915710 15.211773
554 41.076800 48.852300 51.574700 16.379012 18.328685 25.289186
555 60.114800 62.604800 52.624300 28.383839 32.050036 25.922917
556 33.972300 19.243800 0.0000000 4.9779274 4.0788824 0.5490583
557 46.574600 19.097500 17.080300 8.8655645 6.0603159 3.2143355
558 47.429600 49.599600 15.851500 14.223877 18.076684 3.1824746
559 62.255700 50.589600 28.519800 22.354555 22.363864 8.6512230
560 63.436000 61.517900 29.941300 26.410964 30.690533 9.4609758
561 87.562700 62.657200 52.974600 47.273182 41.636698 27.405561
562 91.029900 66.749100 64.392000 55.766491 48.501503 41.027261
563 19.932700 9.9527000 7.4464000 1.9302904 1.5141386 0.9611651
564 28.609500 15.345600 10.286000 3.4796323 2.8147715 1.5250440
565 69.096300 17.746600 24.338400 21.158792 11.502599 5.7083013
566 84.938500 31.566600 38.874300 35.644955 21.421062 13.897450
567 91.140500 33.135100 53.114600 45.604058 25.801252 26.446188
568 40.613300 28.932500 16.692800 8.1644989 7.4853781 3.2237347
569 58.500800 37.151000 20.218200 16.607752 14.086155 4.6880420
570 67.530200 48.515300 33.638000 24.998901 22.711065 11.449124
571 69.537800 58.491700 47.084700 31.731716 31.293794 20.926716
572 73.980200 87.299800 68.106600 51.969772 65.039431 48.495638
573 89.346500 93.754200 77.752800 70.549514 80.745356 63.695063
574 100.00000 100.00000 100.00000 94.039848 98.799487 111.76390
575 57.633100 64.165200 11.610300 22.939926 31.359154 5.1631361
576 59.569600 78.480600 16.684500 29.218631 45.955017 7.6053046
577 45.346600 64.767100 75.527800 29.310901 32.898228 60.408045
578 62.911700 67.540600 89.573300 43.125022 42.376539 84.584570
579 0.0000000 0.0000000 0.0000000 0.0787306 0.0828323 0.0918804
580 7.4441000 17.041200 16.956300 1.4247093 1.9800036 2.6947737
581 11.320200 21.391100 25.439100 2.5197902 3.1338052 5.8145974
582 39.566900 30.880600 45.917100 11.233200 9.3130303 18.812471
583 90.699900 35.715700 88.305300 55.688281 30.669153 86.712645
584 79.548700 0.0000000 70.335200 37.562220 18.147174 53.714250
585 83.593000 20.574300 73.180400 42.093440 20.829280 57.798269
586 39.111700 8.3865000 33.543100 7.5591529 3.7018925 10.679630
587 54.999900 18.253300 44.931900 16.165371 8.7838521 19.273202
588 62.962600 29.566900 58.423500 23.863219 14.456996 33.467374
589 62.659100 40.426900 68.283500 27.907228 20.041809 47.226895
590 38.712600 51.043500 60.095600 18.098875 19.950878 35.339069
591 50.768600 57.646100 62.469300 24.610020 26.740824 37.879804
592 16.527500 22.822400 61.084500 9.1020920 6.1208310 35.303758
593 17.850100 27.305200 90.545400 19.987310 11.491199 87.281286
594 12.805900 32.102200 84.003500 17.242663 11.364189 73.021014
595 14.973700 52.755000 88.979200 25.088331 23.077035 86.101724
596 31.858200 62.092700 90.126000 30.301683 30.909823 89.049440
597 50.157900 65.241800 92.023400 37.794400 37.000187 92.468478
598 76.512300 60.481500 77.054500 44.654616 38.061719 61.269237
599 90.516000 61.903900 87.030100 60.951473 46.001367 81.667934
600 17.784600 24.764600 19.210000 3.0869972 4.0761164 3.4102461
601 22.391600 30.757500 31.388400 5.4406287 6.5523600 8.6215488
602 24.539400 32.670000 39.127400 7.0856814 7.6079684 13.785230
603 0.0000000 21.925400 12.844800 1.8467497 3.0499691 2.0465868
604 11.315700 27.374800 17.581200 2.7823156 4.6518197 3.0551332
605 11.344600 31.773300 41.509300 5.8426846 6.7351094 15.803554
606 53.598400 73.187000 48.452700 28.277759 40.534995 22.997731
607 67.552700 75.322200 67.371000 41.427698 48.043732 45.605712
608 74.222700 78.996000 88.261700 54.718719 57.115913 82.851146
609 76.982300 86.897000 91.156300 61.889025 68.342468 90.565234
610 11.428900 27.639800 24.733900 3.2506847 4.7483499 5.5968947
611 13.859600 31.316600 35.236500 5.0177227 6.4922729 11.240164
612 17.804400 67.396400 70.347400 24.954711 33.650419 52.399887
613 19.423500 70.626000 80.517600 29.676592 37.628349 69.893877
614 35.318900 77.395200 89.728200 36.948108 45.824397 90.196173
615 22.817200 22.060500 29.092600 4.3676421 4.1716366 7.1793344
616 43.877600 32.662700 29.425700 10.717839 9.6733441 7.7314769
617 52.984200 32.367900 37.005100 15.200089 11.658380 12.324536
618 65.924600 37.902000 40.582900 22.810976 17.165312 15.040762
619 66.090600 60.683400 55.109400 32.367768 33.007878 29.344645
620 12.226900 63.430600 19.336700 13.841346 26.329773 5.2622833
621 5.4753000 87.637800 20.521400 28.748880 55.308969 9.3098985
622 29.411800 100.00000 24.853900 38.165531 73.373350 12.637127
623 27.402000 100.00000 47.194000 40.668107 74.443372 24.951825
624 44.630500 67.982800 14.359400 18.625677 32.392077 5.5827690
625 87.864000 70.966400 27.237600 48.339084 47.854052 8.5301337
626 88.325000 86.282700 26.777800 54.814879 65.718542 10.194861
627 98.306500 89.420100 39.867300 69.628332 75.039103 17.963909
628 20.692900 43.044300 10.006800 5.8358096 11.126878 2.1402552
629 36.232600 43.228400 15.524900 9.0381579 12.740842 3.0986244
630 86.740800 75.308100 11.176900 48.760905 51.206269 7.4985574
631 86.491400 78.593500 39.710000 51.377681 55.730090 16.295765
632 58.667100 0.0000000 14.188200 14.670668 7.4409430 2.4993950
633 90.039900 6.8701000 26.725300 39.599714 20.002169 7.1041135
634 94.003700 22.625600 26.047000 42.281120 22.468124 6.4439410
635 36.822300 15.217100 8.0631000 5.1642036 3.6712505 1.3357311
636 37.933100 22.933000 18.371000 6.7695107 5.5880718 3.4450049
637 26.904000 22.631700 17.037300 4.2215858 4.3088199 2.7480938
638 35.050800 25.602800 27.069100 6.9431271 6.1176300 6.5236900
639 59.729700 43.184500 47.472400 22.271875 18.628535 20.918406
640 76.033100 53.871400 53.751100 35.535795 30.214382 27.182440
641 76.269000 62.583400 61.385600 40.666887 38.063229 36.400751
642 51.341300 47.387200 25.381900 16.054561 17.606473 6.4647490
643 53.172200 56.425500 33.116200 19.862549 24.516169 10.554632
644 58.494800 71.803900 39.660800 28.348199 39.467523 15.911124
645 70.624500 73.818500 43.295700 37.134279 45.484436 18.569030
646 75.752400 78.997700 60.557600 46.263849 53.619125 36.881482
647 10.059000 30.648600 51.930300 7.4515213 7.0707242 24.821845
648 11.928200 41.477200 58.351800 11.255690 12.128131 33.049213
649 15.134700 42.831800 66.597600 13.798306 13.700734 44.044368
650 17.645500 54.588800 70.952000 19.096488 21.634412 52.943388
651 26.157900 62.909200 75.092500 23.685768 28.656068 59.974964
652 13.452200 43.307000 52.732800 10.427198 12.662202 26.109238
653 25.304200 51.901600 62.223200 15.936901 19.246477 38.965707
654 24.300600 87.325600 62.883000 34.379962 57.142323 39.164637
655 44.755700 91.422100 67.430100 38.786752 63.754128 46.244113
656 26.612700 36.298800 16.057100 5.6831533 8.5319515 2.9557291
657 45.167000 38.597100 24.083200 11.689841 11.948520 5.6572222
658 45.907000 41.004900 34.454700 13.338055 13.614094 10.789373
659 59.777900 87.904700 93.559300 52.965065 64.062678 99.948035
660 69.622600 88.269300 100.00000 63.573969 68.838449 108.61749
661 12.643300 18.620300 68.745200 10.503988 5.7595052 46.490183
662 18.866100 32.382800 71.182200 13.551465 10.204696 50.677863
663 39.224800 32.049800 71.545700 17.347824 12.146681 50.135172
664 67.735900 54.007400 84.629300 39.708104 31.994746 75.245689
665 0.0000000 67.250500 36.578700 17.418304 30.887063 13.817280
666 14.846400 75.776300 58.237500 25.635423 41.486047 32.611052
667 12.343300 93.910100 58.553400 38.729562 67.112145 35.520869
668 0.0000000 44.746600 39.040500 8.5729078 12.875502 13.916230
669 9.6206000 46.041100 46.123200 10.158117 14.129655 19.976334
670 70.205400 45.855000 62.949900 32.470458 24.348968 39.598578
671 8.1176000 9.8951000 15.408600 1.0987797 1.0946416 2.3077979
672 17.631100 13.279300 19.392200 2.2813560 2.0018367 3.3050256
673 35.322000 16.605100 20.996900 5.7050210 3.9826932 4.2005138
674 50.852000 11.612300 20.641300 10.653149 5.7077821 4.2012916
675 55.661800 22.484400 28.936400 14.276097 9.1246228 7.6060186
676 60.447900 71.137700 27.536500 27.298156 38.260420 8.7281182
677 23.250200 51.887600 0.0000000 8.8911005 17.062382 3.0237692
678 30.871400 55.606100 41.951100 13.606245 21.208161 16.184615
679 39.108500 49.706800 37.239700 13.447305 17.713243 12.881828
680 50.040200 50.447500 40.305900 18.101745 20.283759 14.943372
681 63.395100 81.754800 73.418700 43.259513 54.824368 54.951513
682 77.540900 87.503600 79.051600 58.087406 67.754817 66.161848
683 92.789900 93.290600 86.982000 77.722161 83.443882 81.560453
684 6.8746000 45.476900 19.953200 7.0485354 12.830532 4.5171266
685 57.630900 49.759600 38.286300 21.083932 21.344442 13.544549
686 74.555200 52.863100 44.799500 32.506248 28.565118 18.954641
687 63.073900 19.811000 0.0000000 15.747000 9.3804394 0.9734376
688 77.222400 21.623100 19.830400 25.275532 14.461816 4.5766387
689 88.861900 50.924100 20.838600 39.333664 30.980943 6.3734878
690 88.747500 59.640900 41.044900 43.926844 38.105590 17.925319
691 93.006100 72.635200 57.556800 57.661455 53.679475 32.385212
692 24.486400 29.953400 6.3298000 3.9748974 5.7283861 0.9222304
693 36.045200 31.197500 11.882000 6.9391541 7.5228852 1.8673266
694 54.989200 64.331200 61.467000 28.466859 33.161688 36.886892
695 61.284600 68.763600 73.608200 36.863748 39.963784 55.821595
696 25.071000 15.915500 16.955300 3.3193157 2.7500654 2.7167579
697 29.112000 18.272000 25.417700 4.7361657 3.6978605 5.7866761
698 29.577200 20.840600 34.017100 5.8466805 4.5583075 10.168359
699 30.761000 23.162600 73.242600 14.726738 8.6907709 52.707748
700 49.027800 33.219200 82.307300 24.512260 15.765639 69.292586
701 15.456500 8.1335000 58.838300 7.3714131 3.4192849 31.928577
702 18.332100 12.806100 88.646900 17.470734 7.9313781 81.456203
703 48.735900 9.1214000 87.524600 23.932529 10.948088 78.934437
704 57.769300 29.158700 89.962800 30.642734 17.366563 84.919351
705 41.160200 26.520900 51.556400 12.260532 8.6315327 24.365944
706 50.458700 31.375300 65.593400 19.338118 13.093303 41.042731
707 54.757700 47.103900 88.300000 31.995917 24.541659 80.677101
708 63.771500 58.995300 94.540500 42.835292 35.853454 96.848158
709 17.736700 65.985300 57.601800 20.275790 30.884243 31.686600
710 53.313400 72.285700 70.640100 33.054249 41.175607 51.162244
711 62.112800 72.348500 82.594400 41.917799 44.929005 72.213792
712 88.476600 79.635700 83.111400 64.908972 62.839166 73.054034
713 89.045400 84.407400 92.790900 71.072456 70.072692 94.096252
714 35.479100 30.404800 36.753700 8.6902381 8.0215363 12.072826
715 47.103300 37.143500 39.716700 13.829646 12.465301 13.896950
716 32.481100 63.242400 20.951200 13.636155 25.839202 5.5704800
717 37.543300 80.600800 25.723400 24.014399 45.847407 8.8877345
718 37.267600 89.670800 40.647300 31.944767 58.728646 18.821941
719 47.666000 90.391900 79.784100 42.334420 63.671598 65.537957
720 49.337300 90.519700 100.00000 55.350210 66.518044 108.78300
721 39.474300 39.586600 47.644700 12.909404 12.722182 20.447945
722 42.584100 42.658200 58.307800 16.759592 15.778789 31.666580
723 51.424300 48.323800 58.235100 21.157292 20.103899 31.585030
724 51.835900 50.936800 70.492800 25.658163 23.709817 49.393730
725 82.837600 50.967400 91.333900 51.881602 35.586064 91.524876
726 4.0246000 7.8598000 21.307100 1.1625264 0.9472943 4.0554421
727 6.6227000 15.739800 24.387400 1.8333750 1.9030765 5.2067318
728 24.331800 24.339300 44.077900 6.6167433 5.4585515 16.939526
729 33.067900 33.375700 51.867100 10.954709 9.6829081 24.613794
730 36.779200 45.888400 69.627400 18.967247 17.663383 48.728329
731 62.894700 61.805500 77.262800 36.061346 34.893542 60.414265
732 72.097600 95.000600 79.451700 58.241476 76.389956 65.945788
733 85.066200 58.433600 12.489700 39.226083 34.409501 4.7865862
734 94.642100 69.128800 13.964200 54.173217 48.592173 6.6815105
735 17.880600 15.752900 9.0586000 1.9639751 2.0452288 1.1901984
736 19.455900 15.886700 33.833300 3.8520662 2.8846707 9.7604094
737 31.155300 17.843200 40.772400 6.8267017 4.5403714 14.741848
738 49.729900 76.153400 83.212800 37.794110 45.969127 74.249507
739 58.972600 78.272800 91.951200 47.212991 52.146561 93.478950
740 77.551300 15.413200 34.163600 28.481579 14.293236 10.721043
741 79.637900 25.633900 52.752900 33.695761 18.164904 26.772509
742 53.623100 8.6761000 35.087000 13.706475 6.7844265 11.563254
743 55.344100 21.258200 36.695500 15.241719 8.9582055 12.380946
744 54.812600 47.234700 52.050400 21.202472 19.845228 24.779165
745 61.743300 47.544900 58.290900 25.894443 21.875583 32.780883
746 75.258400 54.891600 63.602300 38.031131 31.739735 39.824329
747 90.698600 73.285500 81.915600 63.833679 56.457141 71.197450
748 43.316100 8.0666000 10.579200 6.8519554 3.7154566 1.6632316
749 50.104100 22.815900 10.569500 10.071397 7.2090335 1.9903479
750 62.279000 31.575800 10.485900 16.467242 12.255921 2.3885188
751 72.174000 34.515100 19.355600 22.481005 16.258620 4.9146305
752 78.948400 38.983100 51.803100 34.461253 22.591884 25.462566
753 18.531200 0.0000000 10.462300 1.5512215 0.8000880 1.6207937
754 33.372100 0.0000000 34.989200 6.1811432 2.9651369 11.320701
755 41.342900 12.657000 43.243100 9.5700270 5.0460856 17.054915
756 47.357600 19.684700 78.827600 21.063222 11.119058 62.874741
757 88.446300 20.927400 87.890300 51.541081 25.047370 86.023594
758 55.154900 15.379300 7.2038000 11.457080 6.7746155 1.3721574
759 57.679300 15.967400 17.290400 13.362795 7.7482647 3.3273269
760 62.458900 25.928500 17.531800 16.063711 10.945678 3.8917922
761 75.975400 41.097900 14.279700 25.643783 19.955088 4.0063124
762 74.845700 60.034200 13.060200 31.649156 31.429314 4.8010602
763 74.406600 68.361100 21.150600 35.814416 40.286385 6.2336025
764 74.505400 70.476400 79.329600 47.709763 46.781789 64.844245
765 76.176600 75.206200 92.116200 55.974771 54.525337 91.554686
766 15.518400 23.501400 34.587600 4.2481148 4.2309037 10.677058
767 28.281000 28.151500 38.946000 7.0862024 6.7176224 13.025148
768 29.848900 40.560400 50.059600 11.190790 12.077671 23.538902
769 28.139800 38.481300 100.00000 26.400354 18.266795 101.61778
770 50.028300 38.986500 100.00000 32.422208 21.794313 101.87348
771 70.337900 40.216900 79.716400 35.743145 23.474226 65.735057
772 89.403700 46.298200 83.541200 54.479258 34.314901 75.743230
773 100.00000 74.313600 86.873800 73.219110 61.881104 79.203208
774 63.611400 60.916800 43.058100 27.913088 30.888283 17.619298
775 63.959900 70.728500 50.136600 32.667048 40.283015 24.745324
776 83.309600 86.562900 51.353800 53.599116 65.144751 27.225630
777 91.664900 86.500100 58.445700 63.935859 69.839422 34.143726
778 88.697900 13.182100 11.659100 35.963376 18.246555 2.1820933
779 89.708200 33.632000 13.140400 38.083361 23.027245 2.9064699
780 88.867800 44.887600 27.926000 37.181419 27.268395 9.4648438
781 90.821000 48.793600 55.404000 46.931021 33.042238 29.059184
782 46.130000 9.4984000 24.988600 9.1309169 4.5795745 5.9780140
783 61.305800 10.863300 26.583800 16.421512 8.2761589 6.6407454
784 82.749500 20.310000 28.750500 31.143465 16.690711 7.6989118
785 65.872100 78.034000 0.0000000 32.441048 46.997420 7.6886278
786 75.758800 89.442700 30.777800 44.929156 64.395769 11.752045
787 87.086300 89.720100 41.588800 56.520183 70.185782 18.568400
788 39.918100 54.402500 82.891500 26.594475 25.315901 71.460270
789 55.042700 55.365300 83.257600 32.209837 28.750498 70.922379
790 76.394700 91.008800 87.821100 61.935035 73.271259 82.579016
791 96.994500 96.994500 96.994500 87.649133 91.642981 105.28349
792 11.253600 28.340600 10.046600 2.5954222 4.7310659 1.4958252
793 21.129800 33.545900 20.361800 4.6308249 7.0685642 3.9998574
794 25.695900 34.451000 27.773900 6.1781534 7.9227391 7.0072052
795 69.748900 30.547000 29.876700 22.256655 15.083837 8.6695870
796 79.075800 36.513500 29.315100 28.449519 19.949558 9.3022395
797 78.390800 44.360900 43.721000 32.402488 24.654729 17.981279
798 91.912700 75.110300 46.223600 55.255920 54.542127 21.964158
799 13.742700 17.571800 45.537600 5.0650873 3.5718652 18.146177
800 12.775200 39.495100 72.041400 14.880538 12.935382 53.261559
801 39.158400 41.190200 73.861500 19.509359 15.907959 53.577490
802 16.336300 0.0000000 25.550300 2.2366307 1.0685116 5.7749001
803 49.628400 59.598900 24.575200 18.061055 25.406221 6.7956558
804 32.813200 82.940600 0.0000000 25.015621 48.080342 8.2884712
805 46.320400 90.228800 10.921200 30.791394 59.224597 10.006721
806 52.731700 89.753400 32.347600 32.459338 59.002237 12.976338
807 0.0000000 24.669900 42.810900 4.8918824 4.6461757 16.149042
808 52.547300 31.123200 43.735000 15.864760 11.352999 17.729959
809 64.144900 33.509600 51.829400 23.561658 15.519808 25.361696
810 68.298100 41.446400 51.606900 27.823347 20.495700 25.453106
811 76.668800 71.672700 51.158600 42.014660 45.359186 25.519586
812 82.831700 74.162400 68.246900 51.874762 51.542730 46.922005
813 83.209600 82.684800 72.262700 57.389045 62.384475 53.958821
814 34.550000 75.827500 35.398400 21.711294 39.719003 13.288069
815 72.228300 90.077900 45.525600 45.708518 65.565522 22.017788
816 86.252000 90.266200 66.618500 62.023205 72.938099 45.912453
817 7.5558000 16.043100 9.5691000 1.0619453 1.6718839 1.2905014
818 23.874500 24.503600 11.084300 3.5245782 4.2322197 1.6868857
819 34.771300 31.461500 24.751800 7.3942931 7.7691618 5.7255123
820 36.654600 42.566500 35.756100 10.774299 13.058453 11.289044
821 35.554500 67.126800 40.606400 17.934845 30.595183 16.302655
822 45.646400 77.212000 57.699200 28.274359 43.540512 32.244092
823 57.881400 89.561400 61.384300 40.768827 61.765413 38.479526
824 46.840200 81.477100 49.429100 29.280021 48.619423 24.620674
825 94.212400 86.265900 71.468900 69.145351 71.092344 52.591368
END_DATA
CAL    

DESCRIPTOR "Argyll Device Calibration State"
ORIGINATOR "Argyll dispread"
CREATED "Tue May 26 10:39:49 2020"
DEVICE_CLASS "DISPLAY"
COLOR_REP "RGB"

BEGIN_ARGYLL_DISPCAL_ARGS
-v2 -qm -m -w0.3127,0.329 -gs -f1.0 -k0 -A4.0 -d1 -c1 -yn -P0.498740554156,0.5,2.21916508539 -X "Surface Book Pro 5th Gen.ccmx"
END_ARGYLL_DISPCAL_ARGS


NUMBER_OF_FIELDS 4
BEGIN_DATA_FORMAT
RGB_I RGB_R RGB_G RGB_B
END_DATA_FORMAT

NUMBER_OF_SETS 256
BEGIN_DATA
0.00000000 0.00000000 0.00000000 0.00000000
0.00392157 0.03002790 0.02995900 0.02974130
0.00784314 0.05355030 0.05355300 0.05225150
0.01176470 0.06899770 0.06930320 0.06769910
0.01568630 0.07907960 0.07960050 0.07804330
0.01960780 0.08642080 0.08701180 0.08556670
0.02352940 0.09223560 0.09281830 0.09148800
0.02745100 0.09711380 0.09765080 0.09642530
0.03137250 0.10139500 0.10186200 0.10070900
0.03529410 0.10523500 0.10561700 0.10456600
0.03921570 0.10877800 0.10907100 0.10809800
0.04313730 0.11207800 0.11227600 0.11141500
0.04705880 0.11518800 0.11530000 0.11455300
0.05098040 0.11819800 0.11822300 0.11755100
0.05490200 0.12111200 0.12105500 0.12048900
0.05882350 0.12394300 0.12380300 0.12336700
0.06274510 0.12671600 0.12650100 0.12619200
0.06666670 0.12947800 0.12919300 0.12897600
0.07058820 0.13223700 0.13188300 0.13176600
0.07450980 0.13498900 0.13456600 0.13456600
0.07843140 0.13773500 0.13723900 0.13737500
0.08235290 0.14047200 0.13990300 0.14018500
0.08627450 0.14322900 0.14259200 0.14299500
0.09019610 0.14604400 0.14533600 0.14580700
0.09411760 0.14890900 0.14812500 0.14867100
0.09803920 0.15182200 0.15095700 0.15160000
0.10196100 0.15478000 0.15383200 0.15458100
0.10588200 0.15778000 0.15674500 0.15761100
0.10980400 0.16082300 0.15969600 0.16068600
0.11372500 0.16389300 0.16267400 0.16380800
0.11764700 0.16697400 0.16566500 0.16698000
0.12156900 0.17010000 0.16870700 0.17017500
0.12549000 0.17330000 0.17182500 0.17338900
0.12941200 0.17655800 0.17500700 0.17666600
0.13333300 0.17986200 0.17824700 0.18000300
0.13725500 0.18318700 0.18152500 0.18339300
0.14117600 0.18652500 0.18482900 0.18681200
0.14509800 0.18987400 0.18816200 0.19023800
0.14902000 0.19323300 0.19152100 0.19367300
0.15294100 0.19660200 0.19491200 0.19711400
0.15686300 0.19993800 0.19829500 0.20056300
0.16078400 0.20322400 0.20164700 0.20401600
0.16470600 0.20646900 0.20497300 0.20743200
0.16862700 0.20968500 0.20828200 0.21079700
0.17254900 0.21287000 0.21157000 0.21412000
0.17647100 0.21603200 0.21484800 0.21740600
0.18039200 0.21923600 0.21818400 0.22065200
0.18431400 0.22245800 0.22154100 0.22387500
0.18823500 0.22567800 0.22489100 0.22712400
0.19215700 0.22891300 0.22824900 0.23037200
0.19607800 0.23216800 0.23161800 0.23362600
0.20000000 0.23543700 0.23499500 0.23690600
0.20392200 0.23871700 0.23837600 0.24021000
0.20784300 0.24201600 0.24177400 0.24354100
0.21176500 0.24536200 0.24520800 0.24689800
0.21568600 0.24874300 0.24865600 0.25029900
0.21960800 0.25210100 0.25205700 0.25375900
0.22352900 0.25542900 0.25541000 0.25725200
0.22745100 0.25872100 0.25872000 0.26072100
0.23137300 0.26199000 0.26200100 0.26416600
0.23529400 0.26526600 0.26529600 0.26758100
0.23921600 0.26856900 0.26861400 0.27097300
0.24313700 0.27188600 0.27193200 0.27438200
0.24705900 0.27520400 0.27525000 0.27781500
0.25098000 0.27853800 0.27858600 0.28124800
0.25490200 0.28189900 0.28194100 0.28467200
0.25882400 0.28524100 0.28525000 0.28810500
0.26274500 0.28853600 0.28852800 0.29154800
0.26666700 0.29183300 0.29180700 0.29494400
0.27058800 0.29514400 0.29509900 0.29829700
0.27451000 0.29848200 0.29841300 0.30165100
0.27843100 0.30184000 0.30174200 0.30501100
0.28235300 0.30520200 0.30507800 0.30838900
0.28627500 0.30857400 0.30842100 0.31177800
0.29019600 0.31195300 0.31176500 0.31517300
0.29411800 0.31533300 0.31510700 0.31857600
0.29803900 0.31872100 0.31847400 0.32198500
0.30196100 0.32217000 0.32190900 0.32539800
0.30588200 0.32567000 0.32538900 0.32882800
0.30980400 0.32920200 0.32889700 0.33233100
0.31372500 0.33271300 0.33237700 0.33589700
0.31764700 0.33618400 0.33582300 0.33950300
0.32156900 0.33961900 0.33923500 0.34308900
0.32549000 0.34302200 0.34262000 0.34664000
0.32941200 0.34640600 0.34598400 0.35015300
0.33333300 0.34977500 0.34932500 0.35362600
0.33725500 0.35312800 0.35263800 0.35707100
0.34117600 0.35643600 0.35590200 0.36049200
0.34509800 0.35972300 0.35917400 0.36388500
0.34902000 0.36303700 0.36247700 0.36722000
0.35294100 0.36638200 0.36581600 0.37052600
0.35686300 0.36976200 0.36920000 0.37384700
0.36078400 0.37319800 0.37264700 0.37718600
0.36470600 0.37670400 0.37615300 0.38054700
0.36862700 0.38025600 0.37968900 0.38395100
0.37254900 0.38383100 0.38324600 0.38742100
0.37647100 0.38744000 0.38684900 0.39094000
0.38039200 0.39108000 0.39047400 0.39448900
0.38431400 0.39469500 0.39405300 0.39806600
0.38823500 0.39822800 0.39754800 0.40168300
0.39215700 0.40166500 0.40095100 0.40529500
0.39607800 0.40503700 0.40429100 0.40885300
0.40000000 0.40838100 0.40762600 0.41232800
0.40392200 0.41175700 0.41099200 0.41572200
0.40784300 0.41516800 0.41438600 0.41906700
0.41176500 0.41860500 0.41780300 0.42240500
0.41568600 0.42207500 0.42125200 0.42576800
0.41960800 0.42557000 0.42471500 0.42914800
0.42352900 0.42907600 0.42819400 0.43254200
0.42745100 0.43260500 0.43168100 0.43595900
0.43137300 0.43610300 0.43512400 0.43938800
0.43529400 0.43957000 0.43855000 0.44282400
0.43921600 0.44304500 0.44198600 0.44627500
0.44313700 0.44651900 0.44542500 0.44969000
0.44705900 0.44998400 0.44885900 0.45307400
0.45098000 0.45342300 0.45227300 0.45646800
0.45490200 0.45684100 0.45567900 0.45986600
0.45882400 0.46023700 0.45907100 0.46325500
0.46274500 0.46361200 0.46245200 0.46662500
0.46666700 0.46697600 0.46583800 0.46997900
0.47058800 0.47034300 0.46923500 0.47332500
0.47451000 0.47371500 0.47264200 0.47666400
0.47843100 0.47710000 0.47609300 0.47999800
0.48235300 0.48055500 0.47964000 0.48333700
0.48627500 0.48413400 0.48332600 0.48669800
0.49019600 0.48780700 0.48705300 0.49008100
0.49411800 0.49147500 0.49075200 0.49352600
0.49803900 0.49512200 0.49442100 0.49709300
0.50196100 0.49874700 0.49806000 0.50080400
0.50588200 0.50234800 0.50167200 0.50452800
0.50980400 0.50593000 0.50526000 0.50824300
0.51372500 0.50949200 0.50882800 0.51194900
0.51764700 0.51303700 0.51236700 0.51564800
0.52156900 0.51656200 0.51589000 0.51934200
0.52549000 0.52007600 0.51940700 0.52302900
0.52941200 0.52359500 0.52292100 0.52670900
0.53333300 0.52711300 0.52642000 0.53036800
0.53725500 0.53060400 0.52987800 0.53400200
0.54117600 0.53405600 0.53331100 0.53761800
0.54509800 0.53752600 0.53677900 0.54123400
0.54902000 0.54103800 0.54029000 0.54483800
0.55294100 0.54459300 0.54383000 0.54839400
0.55686300 0.54816600 0.54737700 0.55189600
0.56078400 0.55174800 0.55094100 0.55540900
0.56470600 0.55534500 0.55449700 0.55895000
0.56862700 0.55889700 0.55799200 0.56251600
0.57254900 0.56237900 0.56142500 0.56609500
0.57647100 0.56581600 0.56482100 0.56969200
0.58039200 0.56922400 0.56819100 0.57329800
0.58431400 0.57261000 0.57153500 0.57685600
0.58823500 0.57600100 0.57489700 0.58035500
0.59215700 0.57943400 0.57828100 0.58382900
0.59607800 0.58286400 0.58163900 0.58729500
0.60000000 0.58626700 0.58496800 0.59076100
0.60392200 0.58964300 0.58826800 0.59426400
0.60784300 0.59298300 0.59152500 0.59781200
0.61176500 0.59628000 0.59473800 0.60136100
0.61568600 0.59952500 0.59789700 0.60489600
0.61960800 0.60273300 0.60105200 0.60841700
0.62352900 0.60596700 0.60424300 0.61190600
0.62745100 0.60923400 0.60746900 0.61535200
0.63137300 0.61253900 0.61074400 0.61874200
0.63529400 0.61591600 0.61411500 0.62211200
0.63921600 0.61940100 0.61760800 0.62550900
0.64313700 0.62301400 0.62123300 0.62893100
0.64705900 0.62675800 0.62497900 0.63238900
0.65098000 0.63060600 0.62881400 0.63593600
0.65490200 0.63452300 0.63271500 0.63960200
0.65882400 0.63850000 0.63668000 0.64340400
0.66274500 0.64253900 0.64072000 0.64733100
0.66666700 0.64664300 0.64478800 0.65135100
0.67058800 0.65070900 0.64880700 0.65544300
0.67451000 0.65469900 0.65274600 0.65960900
0.67843100 0.65858400 0.65658300 0.66385800
0.68235300 0.66233500 0.66028800 0.66810100
0.68627500 0.66593000 0.66384200 0.67225700
0.69019600 0.66938100 0.66726300 0.67632000
0.69411800 0.67272100 0.67057600 0.68024600
0.69803900 0.67599300 0.67383600 0.68401500
0.70196100 0.67924300 0.67707200 0.68761800
0.70588200 0.68247300 0.68028900 0.69108400
0.70980400 0.68569300 0.68351400 0.69444100
0.71372500 0.68895300 0.68678800 0.69774700
0.71764700 0.69225700 0.69010800 0.70103400
0.72156900 0.69560700 0.69347800 0.70431200
0.72549000 0.69899700 0.69688200 0.70759500
0.72941200 0.70241100 0.70030700 0.71093000
0.73333300 0.70582200 0.70373100 0.71431100
0.73725500 0.70921300 0.70713700 0.71774000
0.74117600 0.71257900 0.71053000 0.72120900
0.74509800 0.71592600 0.71390900 0.72470000
0.74902000 0.71926900 0.71730500 0.72818300
0.75294100 0.72265400 0.72075700 0.73164400
0.75686300 0.72608600 0.72423400 0.73508600
0.76078400 0.72952200 0.72770500 0.73850900
0.76470600 0.73296300 0.73117000 0.74191500
0.76862700 0.73641200 0.73463700 0.74532400
0.77254900 0.73987000 0.73809200 0.74877900
0.77647100 0.74332200 0.74152800 0.75223400
0.78039200 0.74676000 0.74493300 0.75569000
0.78431400 0.75018900 0.74834300 0.75914300
0.78823500 0.75367000 0.75180600 0.76259600
0.79215700 0.75722100 0.75533900 0.76603600
0.79607800 0.76086200 0.75894500 0.76945200
0.80000000 0.76458500 0.76260100 0.77284100
0.80392200 0.76836400 0.76629800 0.77626600
0.80784300 0.77219900 0.77004200 0.77974900
0.81176500 0.77605900 0.77378100 0.78330500
0.81568600 0.77988100 0.77747400 0.78693600
0.81960800 0.78363800 0.78109500 0.79062700
0.82352900 0.78730500 0.78463200 0.79437700
0.82745100 0.79091300 0.78813600 0.79818200
0.83137300 0.79449900 0.79162900 0.80198200
0.83529400 0.79807100 0.79512000 0.80573700
0.83921600 0.80162500 0.79860600 0.80942300
0.84313700 0.80519200 0.80212400 0.81303500
0.84705900 0.80877900 0.80567300 0.81662700
0.85098000 0.81238100 0.80925200 0.82022100
0.85490200 0.81601200 0.81287500 0.82382300
0.85882400 0.81969800 0.81655900 0.82743000
0.86274500 0.82343200 0.82028400 0.83108400
0.86666700 0.82720200 0.82404600 0.83478200
0.87058800 0.83098400 0.82780300 0.83852100
0.87451000 0.83473200 0.83152000 0.84231700
0.87843100 0.83842100 0.83517100 0.84619800
0.88235300 0.84205700 0.83876700 0.85014500
0.88627500 0.84570000 0.84238600 0.85415400
0.89019600 0.84940800 0.84606700 0.85817000
0.89411800 0.85318200 0.84980500 0.86217000
0.89803900 0.85699900 0.85358200 0.86614300
0.90196100 0.86083600 0.85736700 0.87012100
0.90588200 0.86465400 0.86113000 0.87419500
0.90980400 0.86844900 0.86487900 0.87838500
0.91372500 0.87229400 0.86868300 0.88266800
0.91764700 0.87618800 0.87253500 0.88700800
0.92156900 0.88009900 0.87640600 0.89136400
0.92549000 0.88400000 0.88027700 0.89574100
0.92941200 0.88792100 0.88417500 0.90024200
0.93333300 0.89186400 0.88809800 0.90485100
0.93725500 0.89581900 0.89204000 0.90950900
0.94117600 0.89978900 0.89600000 0.91422800
0.94509800 0.90379200 0.90000100 0.91903700
0.94902000 0.90781800 0.90402900 0.92391000
0.95294100 0.91187500 0.90809500 0.92885600
0.95686300 0.91595500 0.91218800 0.93387600
0.96078400 0.92006500 0.91630500 0.93897000
0.96470600 0.92421000 0.92044400 0.94413000
0.96862700 0.92839300 0.92460600 0.94934200
0.97254900 0.93261200 0.92878700 0.95460900
0.97647100 0.93686400 0.93298600 0.95992900
0.98039200 0.94115000 0.93720200 0.96529400
0.98431400 0.94546900 0.94143500 0.97070700
0.98823500 0.94982200 0.94568600 0.97616800
0.99215700 0.95421000 0.94995400 0.98167800
0.99607800 0.95863200 0.95424000 0.98723800
1.00000000 0.96309000 0.95854400 0.99284700
END_DATA
