CTI3   

DESCRIPTOR "Argyll Calibration Target chart information 3"
ORIGINATOR "Argyll dispread"
CREATED "Mon Sep 28 22:28:22 2020"
DEVICE_CLASS "DISPLAY"
SINGLE_DIM_STEPS "21"
COMP_GREY_STEPS "61"
DARK_REGION_EMPHASIS "1.6"
COLOR_REP "RGB_XYZ"
TARGET_INSTRUMENT "X-Rite i1 DisplayPro, ColorMunki Display"
DISPLAY_TYPE_REFRESH "NO"
DISPLAY_TYPE_BASE_ID "1"
INSTRUMENT_TYPE_SPECTRAL "NO"
LUMINANCE_XYZ_CDM2 "399.136719 419.499304 457.529787"
NORMALIZED_TO_Y_100 "YES"
VIDEO_LUT_CALIBRATION_POSSIBLE "YES"

BEGIN_ARGYLL_COLPROF_ARGS
-v -qh -aX -bn -C "No copyright. Created with DisplayCAL 3.8.9.3 and ArgyllCMS 2.1.2" -M "27531" -A "AU Optronics"
END_ARGYLL_COLPROF_ARGS

OBSERVER "1931_2"
USE_BLACK_POINT_COMPENSATION "NO"
BLACK_POINT_CORRECTION "0.0"
HIRES_B2A "YES"
HIRES_B2A_SIZE "-1"
SMOOTH_B2A "YES"
PATCH_SEQUENCE "OPTIMIZE_DISPLAY_RESPONSE_DELAY"

NUMBER_OF_FIELDS 7
BEGIN_DATA_FORMAT
SAMPLE_ID RGB_R RGB_G RGB_B XYZ_X XYZ_Y XYZ_Z
END_DATA_FORMAT

NUMBER_OF_SETS 588
BEGIN_DATA
1 100.00000 100.00000 100.00000 95.145980 100.00000 109.06570
2 1.9608000 1.9608000 1.9608000 0.1340358 0.1408390 0.1629579
3 3.9216000 3.9216000 3.9216000 0.2869717 0.3019230 0.3513688
4 5.8824000 5.8824000 5.8824000 0.4725972 0.4981451 0.5761548
5 9.8039000 9.8039000 9.8039000 0.9877023 1.0475902 1.1951181
6 13.726000 13.726000 13.726000 1.7025565 1.8070794 2.0438457
7 17.647000 17.647000 17.647000 2.6041529 2.7620776 3.1101235
8 21.569000 21.569000 21.569000 3.6499897 3.8685269 4.3266505
9 25.490000 25.490000 25.490000 4.9472573 5.2135872 5.7733537
10 29.412000 29.412000 29.412000 6.6101307 6.9646786 7.6229476
11 33.333000 33.333000 33.333000 8.5599482 9.0079361 9.8269751
12 37.255000 37.255000 37.255000 10.771870 11.335169 12.368817
13 41.176000 41.176000 41.176000 13.308900 13.998329 15.273707
14 45.098000 45.098000 45.098000 16.234121 17.059530 18.632298
15 49.020000 49.020000 49.020000 19.470722 20.466401 22.354299
16 52.941000 52.941000 52.941000 22.987863 24.210552 26.394760
17 56.863000 56.863000 56.863000 26.914464 28.360823 30.888731
18 60.784000 60.784000 60.784000 31.144895 32.838944 35.745932
19 64.706000 64.706000 64.706000 35.618106 37.565285 40.920674
20 68.627000 68.627000 68.627000 40.590667 42.803266 46.594615
21 72.549000 72.549000 72.549000 45.927308 48.461688 52.904206
22 76.471000 76.471000 76.471000 51.488300 54.329799 59.349768
23 80.392000 80.392000 80.392000 57.669441 60.848411 66.249740
24 84.314000 84.314000 84.314000 64.327203 67.800272 73.783842
25 88.235000 88.235000 88.235000 71.517854 75.337934 81.999073
26 92.157000 92.157000 92.157000 78.820896 82.984646 90.531496
27 96.078000 96.078000 96.078000 86.735738 91.277008 99.744848
28 45.850100 0.0000000 50.355100 11.390780 5.5010633 20.689648
29 51.960600 39.417500 55.439800 19.049272 16.130360 27.274760
30 73.303300 0.0000000 17.096500 21.091522 10.920899 3.2056846
31 76.746400 0.0000000 32.207000 24.371393 12.501049 8.5890508
32 100.00000 61.113300 39.907200 56.197321 46.530087 17.975608
33 100.00000 71.773500 66.363200 65.924023 58.482000 44.982985
34 59.273300 54.101600 0.0000000 21.685172 24.589902 3.5736646
35 69.273000 57.339600 25.060900 29.303384 30.308443 9.0239370
36 0.0000000 36.797500 58.132300 9.2107693 9.9826094 29.451171
37 0.0000000 62.578700 80.702800 23.320613 29.346173 62.722569
38 34.164900 72.304100 84.521100 33.111765 41.092296 71.287171
39 100.00000 89.385500 100.00000 87.522628 84.463126 106.42950
40 4.8077000 0.0000000 0.0000000 0.1867557 0.1269570 0.0772370
41 19.662900 0.0000000 0.0000000 1.3585436 0.7339131 0.1363370
42 23.255800 0.0000000 0.0000000 1.8062261 0.9659772 0.1505140
43 27.108400 0.0000000 0.0000000 2.4459594 1.2981383 0.1691891
44 31.250000 0.0000000 0.0000000 3.3264496 1.7550024 0.1939789
45 35.714300 0.0000000 0.0000000 4.3169184 2.2707765 0.2215461
46 40.540500 0.0000000 0.0000000 5.6057623 2.9389667 0.2577548
47 45.774700 0.0000000 0.0000000 7.4059575 3.8726409 0.3076646
48 48.623800 0.0000000 0.0000000 8.4298330 4.4028080 0.3352364
49 51.470600 0.0000000 0.0000000 9.4906283 4.9535582 0.3653657
50 57.692300 0.0000000 0.0000000 12.182100 6.3485925 0.4393349
51 64.516100 0.0000000 0.0000000 15.664451 8.1600259 0.5359159
52 72.033900 0.0000000 0.0000000 19.891982 10.350128 0.6511809
53 80.357100 0.0000000 0.0000000 25.332523 13.168759 0.7981750
54 89.622600 0.0000000 0.0000000 32.864735 17.085570 0.9969780
55 87.571400 14.148800 19.233000 32.191655 17.653930 4.2514288
56 28.671900 13.665200 0.0000000 3.3786114 2.7053156 0.3930435
57 31.706600 18.338900 15.555800 4.8618790 4.0570259 2.7181737
58 0.0000000 10.204100 0.0000000 0.4233552 0.8043932 0.2303587
59 0.0000000 13.157900 0.0000000 0.6287220 1.2247723 0.3057988
60 0.0000000 16.304300 0.0000000 0.8830494 1.7443584 0.3961668
61 0.0000000 19.662900 0.0000000 1.1647095 2.3225195 0.4971755
62 0.0000000 23.255800 0.0000000 1.5290368 3.0691527 0.6280035
63 0.0000000 27.108400 0.0000000 2.0222195 4.0969679 0.8078272
64 0.0000000 31.250000 0.0000000 2.7328878 5.5302393 1.0586539
65 0.0000000 35.714300 0.0000000 3.5496950 7.1953687 1.3494221
66 0.0000000 40.540500 0.0000000 4.5790052 9.3242232 1.7211282
67 0.0000000 45.774700 0.0000000 6.0363586 12.307539 2.2451463
68 0.0000000 51.470600 0.0000000 7.7431180 15.798310 2.8527495
69 0.0000000 57.692300 0.0000000 10.029770 20.436981 3.6613557
70 0.0000000 64.516100 0.0000000 12.918230 26.350052 4.6918799
71 0.0000000 72.033900 0.0000000 16.453601 33.599094 5.9503132
72 0.0000000 80.357100 0.0000000 20.955892 42.806646 7.5399516
73 28.699300 86.207600 0.0000000 27.372704 51.738138 8.9066459
74 29.123200 100.00000 87.608400 50.877489 77.481605 82.590244
75 0.0000000 88.015400 100.00000 44.144108 60.179810 104.87280
76 73.500300 89.016100 100.00000 65.729733 72.664163 105.74910
77 86.909200 100.00000 100.00000 83.647297 94.006509 108.73310
78 0.0000000 0.0000000 10.204100 0.2515719 0.1388810 1.0849920
79 0.0000000 0.0000000 13.157900 0.3646592 0.1847180 1.6666612
80 0.0000000 0.0000000 16.304300 0.5001681 0.2396760 2.3735411
81 0.0000000 0.0000000 19.662900 0.6522420 0.3013870 3.1668365
82 0.0000000 0.0000000 23.255800 0.8473350 0.3805141 4.1860308
83 0.0000000 0.0000000 27.108400 1.1132536 0.4884961 5.5784119
84 0.0000000 0.0000000 31.250000 1.4743689 0.6347581 7.4665451
85 0.0000000 0.0000000 35.714300 1.8994629 0.8088452 9.6913381
86 0.0000000 0.0000000 40.540500 2.4649062 1.0364402 12.636528
87 0.0000000 0.0000000 45.774700 3.2368592 1.3518283 16.665095
88 0.0000000 0.0000000 51.470600 4.1379304 1.7196614 21.370342
89 0.0000000 0.0000000 57.692300 5.3176900 2.2012925 27.522214
90 0.0000000 0.0000000 64.516100 6.8544377 2.8306486 35.528155
91 0.0000000 0.0000000 72.033900 8.7537444 3.6047878 45.433549
92 0.0000000 0.0000000 80.357100 11.119760 4.5693221 57.736022
93 35.901900 0.0000000 100.00000 22.853973 9.9133233 95.791527
94 38.672700 45.810600 100.00000 29.806654 22.886841 98.077727
95 59.142800 68.029700 100.00000 45.967878 43.997777 101.26590
96 80.877000 79.686300 100.00000 64.844103 63.189161 103.83660
97 0.0000000 2.3364000 0.0000000 0.0951259 0.1370160 0.0881681
98 3.1447000 3.1447000 3.1447000 0.2212054 0.2317520 0.2720050
99 3.9683000 3.9683000 3.9683000 0.2868142 0.3016250 0.3513173
100 4.8077000 4.8077000 4.8077000 0.3572719 0.3753351 0.4387652
101 5.6634000 5.6634000 5.6634000 0.4325751 0.4559791 0.5311013
102 6.5359000 6.5359000 6.5359000 0.5557533 0.5879801 0.6796892
103 7.4257000 7.4257000 7.4257000 0.6517373 0.6890241 0.7919813
104 8.3333000 8.3333000 8.3333000 0.7511190 0.7953242 0.9129830
105 9.2593000 9.2593000 9.2593000 0.9210176 0.9755322 1.1173135
106 10.204100 10.204100 10.204100 1.0485229 1.1134352 1.2699553
107 11.168400 11.168400 11.168400 1.1782943 1.2497253 1.4236813
108 12.152800 12.152800 12.152800 1.3879426 1.4715223 1.6763978
109 13.157900 13.157900 13.157900 1.6154094 1.7131794 1.9466023
110 14.184400 14.184400 14.184400 1.7764896 1.8843844 2.1354839
111 15.233000 15.233000 15.233000 2.0364616 2.1631525 2.4423073
112 16.304300 16.304300 16.304300 2.3114053 2.4530686 2.7659358
113 17.399300 17.399300 17.399300 2.5027534 2.6536776 2.9863296
114 18.518500 18.518500 18.518500 2.7962435 2.9636097 3.3327663
115 19.662900 19.662900 19.662900 3.0938541 3.2817597 3.6772580
116 20.833300 20.833300 20.833300 3.4365045 3.6334468 4.0718909
117 22.030700 22.030700 22.030700 3.7774428 3.9850429 4.4582361
118 23.255800 23.255800 23.255800 4.1279500 4.3566710 4.8680114
119 24.509800 24.509800 24.509800 4.5110891 4.7546211 5.2976752
120 25.793600 25.793600 25.793600 5.0754133 5.3563042 5.9257698
121 27.108400 27.108400 27.108400 5.5620934 5.8602324 6.4654412
122 28.455300 28.455300 28.455300 6.2291646 6.5678675 7.1997964
123 29.835400 29.835400 29.835400 6.7736278 7.1337657 7.8050966
124 31.250000 31.250000 31.250000 7.5403329 7.9296809 8.6664459
125 32.700400 32.700400 32.700400 8.0982551 8.5413400 9.3294160
126 34.188000 34.188000 34.188000 8.9571123 9.4252942 10.282496
127 35.714300 35.714300 35.714300 9.7809685 10.310918 11.236146
128 37.280700 37.280700 37.280700 10.727610 11.292949 12.325437
129 38.888900 38.888900 38.888900 11.689360 12.310619 13.415107
130 40.540500 40.540500 40.540500 12.723790 13.390729 14.640617
131 42.237400 42.237400 42.237400 14.119761 14.850530 16.229398
132 43.981500 43.981500 43.981500 15.290051 16.080200 17.545948
133 45.774700 45.774700 45.774700 16.795081 17.646150 19.270758
134 47.619100 47.619100 47.619100 18.070291 18.992031 20.768879
135 49.516900 49.516900 49.516900 19.731732 20.753531 22.675789
136 51.470600 51.470600 51.470600 21.485092 22.603061 24.673390
137 53.482600 53.482600 53.482600 23.347523 24.558742 26.807010
138 55.555600 55.555600 55.555600 25.670233 27.037872 29.486021
139 57.692300 57.692300 57.692300 27.710344 29.197183 31.801561
140 59.895800 59.895800 59.895800 30.272454 31.896704 34.752432
141 62.169300 62.169300 62.169300 32.866815 34.649974 37.749013
142 64.516100 64.516100 64.516100 35.662156 37.597435 40.972304
143 66.939900 66.939900 66.939900 38.520606 40.607036 44.286284
144 69.444400 69.444400 69.444400 41.648657 43.908297 47.872855
145 72.033900 72.033900 72.033900 45.322688 47.823617 52.231546
146 74.712600 74.712600 74.712600 49.153839 51.896568 56.681087
147 77.485400 77.485400 77.485400 53.218960 56.179549 61.311799
148 80.357100 80.357100 80.357100 57.596231 60.770321 66.214720
149 83.333300 83.333300 83.333300 62.241742 65.607382 71.389491
150 86.419700 86.419700 86.419700 67.767953 71.394793 77.744642
151 89.622600 89.622600 89.622600 74.491175 78.430305 85.506864
152 92.948700 92.948700 92.948700 80.297886 84.530086 92.316006
153 96.405200 96.405200 96.405200 87.564398 92.113898 100.71340
154 54.915900 0.0000000 78.520100 21.495022 10.015578 55.041287
155 58.979600 0.0000000 100.00000 31.219565 14.245999 96.053507
156 63.995900 0.0000000 68.264900 23.007043 11.116129 40.539674
157 78.970100 0.0000000 100.00000 42.653037 20.169901 96.385907
158 79.399700 28.965900 100.00000 45.349678 25.181422 97.289637
159 0.0000000 100.00000 80.315000 45.648638 74.965474 70.124301
160 0.0000000 100.00000 100.00000 52.902010 78.004295 107.89250
161 38.819500 100.00000 100.00000 58.214821 80.781375 108.08440
162 68.038200 100.00000 100.00000 70.532304 87.190277 108.41140
163 0.0000000 40.590100 41.307600 7.2576739 10.638449 14.949787
164 0.0000000 57.528900 54.337100 14.763201 22.470001 28.081081
165 0.0000000 73.858600 62.079700 23.533333 37.904605 38.625993
166 0.0000000 70.687700 76.896400 25.793983 36.261945 57.953528
167 0.0000000 76.965400 100.00000 37.401376 46.440507 102.47990
168 31.445600 78.907000 100.00000 41.959977 50.567448 103.02320
169 55.399900 89.807700 100.00000 56.808911 68.869873 105.68590
170 76.608100 54.858700 63.605800 38.301666 32.985164 38.317473
171 100.00000 61.899800 71.183100 62.694552 49.747708 50.231376
172 65.989000 50.806400 40.504900 26.548524 25.243412 16.078038
173 79.592700 59.164900 53.370400 40.060957 36.680575 28.068861
174 45.496400 100.00000 0.0000000 41.866197 74.259684 12.408907
175 65.657700 100.00000 22.470100 51.544020 79.197855 16.692958
176 82.599400 100.00000 42.621100 64.585533 85.760637 27.612420
177 82.320200 100.00000 61.611100 67.662763 86.976157 45.253965
178 100.00000 100.00000 64.105100 83.511947 95.148629 48.546625
179 0.0000000 89.622600 0.0000000 27.070724 55.263309 9.6884111
180 0.0000000 100.00000 32.710600 36.067336 71.061253 20.326579
181 33.928300 100.00000 50.585800 42.540937 74.162684 33.281662
182 100.00000 49.772400 0.0000000 49.475389 36.806465 3.8277147
183 100.00000 68.048200 0.0000000 56.787111 51.748818 6.4295053
184 100.00000 100.00000 0.0000000 76.720506 92.349578 13.357687
185 100.00000 100.00000 37.940600 78.932766 93.274138 24.801060
186 64.398700 100.00000 56.485400 55.278200 80.667065 39.357363
187 71.578500 100.00000 76.223900 64.223943 84.788316 64.206469
188 0.0000000 0.0000000 0.0000000 0.0570751 0.0599899 0.0654127
189 0.0000000 78.154000 30.470900 20.999612 40.645216 14.156547
190 0.0000000 100.00000 57.363600 39.768297 72.546523 39.548723
191 100.00000 100.00000 100.00000 95.169290 99.990570 109.11050
192 28.024800 46.234700 0.0000000 8.7362742 13.935209 2.3666764
193 50.305500 62.592000 0.0000000 21.139212 29.421883 4.6641379
194 52.435200 75.899300 38.861800 30.904255 44.151227 18.730188
195 66.693000 88.803300 41.630900 45.759078 63.525341 23.540059
196 0.0000000 22.099500 35.038400 3.1766394 3.5572618 9.8192621
197 0.0000000 22.485300 46.143700 4.7120621 4.2436760 17.554144
198 0.0000000 28.198100 63.910800 8.8744053 7.2114617 35.480362
199 60.827600 27.491300 71.214800 24.417933 14.934850 45.746815
200 0.0000000 10.720000 21.362100 1.1305826 1.1344782 3.7949087
201 0.0000000 11.170500 34.740700 2.2454832 1.6267654 9.4832587
202 100.00000 0.0000000 48.238500 45.821918 23.380342 20.010449
203 100.00000 0.0000000 63.331100 48.702829 24.561542 35.072152
204 100.00000 28.837600 64.403600 51.372579 29.509513 37.515523
205 100.00000 46.284800 78.478100 59.024751 39.030405 58.397878
206 50.583600 0.0000000 16.378500 9.6575644 4.9915652 2.6887801
207 58.212800 14.381400 26.537500 14.139221 8.2828180 6.1100852
208 63.468500 34.322100 44.343500 21.495532 15.918870 17.312428
209 0.0000000 37.279300 17.696800 4.3973802 8.1374879 4.0998188
210 0.0000000 48.119300 35.255700 8.5781202 14.531839 11.959707
211 43.141700 62.893500 38.162800 20.844792 29.088423 15.822148
212 42.272800 66.913700 69.192200 28.258734 35.207204 46.527045
213 100.00000 78.087700 84.659100 74.479365 67.372992 73.587761
214 100.00000 0.0000000 100.00000 60.581192 29.468943 96.902207
215 100.00000 26.936200 100.00000 62.662232 33.707004 97.621137
216 100.00000 46.401000 100.00000 66.905253 42.371646 99.151538
217 0.0000000 7.4257000 0.0000000 0.2767054 0.5039361 0.1731667
218 0.0000000 11.303300 12.457300 0.7756723 1.0694192 1.7050684
219 100.00000 0.0000000 0.0000000 42.199757 21.907801 1.2246831
220 100.00000 0.0000000 19.732500 42.810137 22.159761 4.4029618
221 100.00000 0.0000000 33.985100 43.910108 22.614451 10.196066
222 100.00000 28.183900 47.567500 47.932069 27.890303 20.235169
223 0.0000000 0.0000000 0.0000000 0.0570948 0.0599885 0.0654507
224 0.0000000 0.0000000 2.3364000 0.0769086 0.0681286 0.1703188
225 0.0000000 0.0000000 89.622600 14.370131 5.9154214 74.697571
226 30.868400 33.133300 100.00000 24.726333 15.522240 96.944407
227 0.0000000 22.757200 77.885300 11.853250 7.2483167 54.598607
228 0.0000000 40.937100 80.760800 15.912111 14.189819 60.089538
229 32.083000 67.733300 100.00000 36.425206 38.994125 101.01060
230 100.00000 77.358200 100.00000 79.921926 68.979693 103.79400
231 28.302700 19.223600 38.942600 6.0483195 4.5720891 12.238765
232 28.114400 31.811900 47.644400 8.9832253 8.5670190 19.237678
233 38.441200 32.782700 67.657700 15.774181 11.965529 40.981694
234 51.015400 40.972400 89.476000 28.427984 20.446151 76.131132
235 60.294600 55.809600 100.00000 41.415267 33.871874 99.489168
236 81.028800 0.0000000 51.995900 30.224774 15.229650 23.011429
237 100.00000 0.0000000 77.724600 52.483160 26.115072 54.792567
238 100.00000 28.724800 82.541800 56.235591 31.411754 63.159939
239 16.311800 0.0000000 10.886400 1.2423195 0.6490151 1.2781506
240 29.922300 0.0000000 27.706900 4.1255132 2.0432905 6.0300637
241 48.540300 0.0000000 36.585500 10.392650 5.2046372 10.461436
242 72.564000 31.669300 40.201100 25.430343 17.236530 14.374997
243 100.00000 100.00000 100.00000 95.161740 99.972750 109.11030
244 73.695700 79.342700 0.0000000 41.161837 52.322169 7.8918877
245 75.742400 100.00000 0.0000000 56.595411 81.891186 12.810197
246 0.0000000 100.00000 0.0000000 34.522495 70.397883 12.229807
247 29.495300 100.00000 22.503100 38.224536 72.280783 16.282108
248 50.792200 100.00000 71.883500 52.659850 78.893675 57.715338
249 68.947000 0.0000000 55.908400 23.087103 11.457209 26.545540
250 79.469700 30.092700 68.713500 35.153396 21.273671 42.336714
251 7.4257000 0.0000000 0.0000000 0.3101550 0.1907760 0.0868535
252 10.204100 0.0000000 0.0000000 0.4779175 0.2774330 0.0979283
253 13.157900 0.0000000 0.0000000 0.7163769 0.4009341 0.1109545
254 16.304300 0.0000000 0.0000000 1.0134974 0.5549171 0.1239003
255 30.162100 55.117900 100.00000 30.742225 28.057173 99.146968
256 0.0000000 0.0000000 100.00000 18.425082 7.5962708 95.729717
257 0.0000000 23.177200 100.00000 19.916512 10.678729 96.302337
258 0.0000000 40.510900 100.00000 23.042853 17.035980 97.403317
259 0.0000000 54.350100 100.00000 27.302354 25.781632 98.934828
260 0.0000000 66.098000 100.00000 32.050525 35.506704 100.65650
261 0.0000000 83.281600 55.115000 27.517964 48.274278 33.348232
262 20.046600 86.915300 67.315800 34.116705 55.263319 48.224145
263 61.923800 25.107500 0.0000000 15.992521 10.954179 1.1114740
264 75.430600 46.922400 0.0000000 28.171684 24.381922 2.9797915
265 83.130900 78.139100 51.807900 51.387809 56.197769 29.854491
266 40.195500 40.605300 0.0000000 10.168980 12.415369 1.9198922
267 42.002000 40.693900 31.170500 12.274300 13.403519 9.3019440
268 54.030700 52.912600 64.310600 25.818283 25.387022 38.652533
269 0.0000000 0.0000000 4.8077000 0.1149570 0.0835725 0.3693460
270 0.0000000 0.0000000 7.4257000 0.1718718 0.1066880 0.6705136
271 34.150200 0.0000000 16.694500 4.4241374 2.2730375 2.6380586
272 38.145600 15.349400 22.637800 6.4974275 4.4402700 4.5632756
273 56.762900 16.743500 38.847000 15.018581 8.9017201 12.400847
274 0.0000000 4.8077000 0.0000000 0.1667390 0.2813040 0.1252796
275 0.0000000 22.508000 13.554400 1.7777247 3.0456507 2.2943263
276 22.138500 36.544700 17.885600 5.9067665 8.6858030 4.2164688
277 58.168200 32.639400 23.059300 16.177711 12.812629 5.6958592
278 100.00000 46.362500 27.014800 49.537189 35.121834 9.1422830
279 100.00000 52.592600 49.665200 54.395010 40.411936 24.514610
280 29.843400 24.241700 0.0000000 4.6080782 4.9004721 0.7614247
281 52.699800 36.070800 0.0000000 13.565100 12.568309 1.6644912
282 55.563300 37.021300 17.645100 15.662301 13.878429 4.4233988
283 100.00000 60.018100 21.911500 54.024110 44.847637 9.1011740
284 100.00000 73.895400 31.379500 61.043542 58.025420 15.059337
285 32.710500 45.501900 37.530400 11.667140 14.916700 13.278017
286 40.375300 50.032900 71.482700 21.648842 21.607611 47.396285
287 56.246100 60.487000 83.457700 34.890866 33.867994 67.559630
288 100.00000 63.531400 85.601900 67.570493 52.808059 72.406721
289 100.00000 100.00000 86.566000 89.967119 97.803609 82.333884
290 14.111600 16.691200 0.0000000 1.6531207 2.2016145 0.4304949
291 20.007800 30.300300 0.0000000 3.8814390 5.8478594 1.0285960
292 28.723100 35.406300 41.303000 8.7736942 9.5893483 14.637147
293 0.7645000 0.7645000 0.7645000 0.0721271 0.0760011 0.0851206
294 1.5432000 1.5432000 1.5432000 0.1093354 0.1150050 0.1322388
295 2.3364000 2.3364000 2.3364000 0.1614261 0.1692820 0.1973464
296 0.0000000 56.701700 22.927800 10.490150 20.172731 7.5907826
297 44.729600 72.388600 63.990500 30.500294 40.604916 41.056484
298 80.920400 30.846800 0.0000000 28.272154 18.732850 1.7494932
299 100.00000 30.670100 0.0000000 44.767348 27.198302 2.1477703
300 100.00000 85.598300 26.459300 67.396943 71.708603 15.192087
301 100.00000 87.840700 70.830000 76.474086 78.058865 54.573617
302 13.481800 0.0000000 20.362600 1.3633034 0.6645531 3.4500841
303 22.063500 0.0000000 38.129500 3.7867465 1.7542004 11.228796
304 35.731500 17.009500 61.749100 11.387680 6.5876835 32.486741
305 54.367000 24.719600 100.00000 31.013695 16.755720 96.687767
306 82.402200 52.027100 100.00000 53.466380 38.188125 99.422688
307 43.537900 12.869300 73.614200 16.393071 8.3608220 48.205445
308 78.327400 30.744100 85.235600 39.227377 22.969531 67.536700
309 17.303600 62.416200 51.766000 17.209301 26.692462 26.211890
310 15.263100 78.111000 88.414400 34.305465 46.231897 78.784973
311 43.595300 85.635500 88.739700 44.769618 58.508260 81.368183
312 30.263500 63.960100 0.0000000 15.623091 27.257233 4.6628889
313 53.499900 82.400600 0.0000000 32.450045 50.596508 8.2533568
314 15.740600 22.479200 27.148400 3.4268757 3.8335759 6.1923478
315 25.672600 22.514300 32.411700 5.1336973 4.6647321 8.7096595
316 44.265900 87.024300 38.926200 34.381455 55.961859 20.959399
317 73.190200 89.617100 66.982700 55.242060 69.149343 49.040446
318 89.594500 100.00000 76.649600 77.138886 91.452128 65.162889
319 17.884100 52.721900 34.443300 11.099230 18.031720 12.161167
320 21.752800 70.978500 50.547600 21.510512 34.998954 26.602800
321 65.775300 72.557900 89.670600 47.544289 48.664808 81.341563
322 3.8891000 17.257400 23.807000 1.9009523 2.2941995 4.8126327
323 15.149300 23.674300 37.884600 4.5908661 4.5156570 11.807074
324 15.002200 33.219700 47.397200 7.3772779 8.1701389 19.210268
325 35.583800 50.155600 49.915600 15.602651 18.945551 22.935079
326 67.730800 63.765000 71.889900 38.769796 38.441845 50.180786
327 79.664700 66.702000 75.987900 48.518629 45.227167 56.986467
328 90.288300 68.627000 84.378000 60.420902 52.583069 70.790771
329 80.740200 29.038800 25.322700 28.942104 18.492950 6.6310074
330 81.912900 22.130400 8.9255000 28.078314 16.668510 2.1587663
331 91.111900 43.862100 12.562000 39.633997 28.988693 4.4777739
332 63.180500 35.788300 7.4459000 18.553882 15.033630 2.3910844
333 68.707400 46.919400 21.030700 24.982093 22.675391 6.4959563
334 73.113000 46.661300 32.245400 28.223574 24.094152 10.823256
335 42.425700 30.445600 7.7091000 8.9477393 8.5746670 1.8553712
336 58.046300 46.766300 10.409800 18.882222 19.366091 3.7875717
337 64.259600 70.301400 12.980700 31.353975 39.944816 7.6205006
338 79.805400 74.077700 14.538400 42.997137 49.018828 8.9399359
339 100.00000 83.862400 0.0000000 65.358563 69.246403 9.4737061
340 100.00000 26.731500 18.307400 44.714768 26.173882 4.8159319
341 100.00000 32.249100 35.085700 46.921578 28.584223 11.700007
342 0.0000000 0.0000000 0.0000000 0.0571035 0.0600168 0.0654577
343 32.431100 0.0000000 57.524900 8.8935429 4.0492119 27.770712
344 38.944100 56.734900 65.158800 21.945622 25.546582 39.937623
345 54.348900 62.309200 73.841300 32.075995 33.937714 52.517936
346 74.972500 68.947800 27.677900 37.714756 42.288526 11.980487
347 77.096100 83.646100 33.444600 47.760839 59.566750 17.462928
348 85.440100 91.301600 51.933100 61.731762 74.456424 32.902482
349 100.00000 100.00000 100.00000 95.132910 99.946860 109.11030
350 90.251600 56.246800 6.1817000 42.755177 36.624115 4.8614749
351 88.617100 88.068300 13.474700 58.298271 69.838823 11.856797
352 91.766900 87.676500 41.306900 62.831512 71.576113 23.595449
353 33.202200 38.444000 10.746000 8.1418861 10.536268 2.7810864
354 45.905400 42.185000 17.894300 13.096150 14.534419 4.8750080
355 78.316300 47.525400 52.596200 34.869166 27.611103 25.730720
356 84.970700 61.689300 87.852500 54.361300 44.545367 76.003532
357 100.00000 61.561500 100.00000 72.340465 53.521839 101.11320
358 31.398600 0.0000000 77.249200 13.472200 5.8896234 52.920106
359 44.429900 10.887500 88.488800 21.281292 10.181398 72.851431
360 61.924800 26.343700 88.710300 30.152064 17.061110 73.646821
361 62.845800 41.442400 100.00000 38.124156 25.389112 97.947267
362 22.578400 8.4875000 31.783100 3.5117442 2.1118155 7.8923380
363 37.332800 12.775600 37.987300 7.4451108 4.4937670 11.536544
364 50.513800 25.111300 45.403200 14.132151 9.6642913 17.410548
365 83.062000 41.520000 57.549800 37.745566 26.517902 30.379881
366 89.540300 55.806200 71.376900 50.516389 39.544805 48.887096
367 19.496200 89.381100 36.105700 30.100434 56.260759 19.670809
368 47.663300 90.142200 72.999200 44.555968 63.798771 56.770187
369 14.204200 65.027500 65.837200 21.020132 30.156663 41.886674
370 20.352600 64.500400 87.876800 27.908324 32.527504 75.662532
371 65.629800 42.991800 57.013200 26.655704 21.402201 29.376251
372 74.810100 44.675100 80.409500 38.509616 27.574843 60.648388
373 89.791300 44.935300 81.719700 50.323699 33.858884 62.929049
374 40.989400 65.743800 20.600900 20.028372 30.839533 8.5655158
375 66.957300 73.456900 38.220900 36.274946 44.691377 17.886978
376 88.719700 73.699400 57.497100 54.658460 54.230929 34.981272
377 19.111900 91.400700 12.416300 29.697254 58.186740 11.554787
378 54.839900 100.00000 38.666100 47.844799 77.085354 24.324950
379 60.174200 100.00000 87.373100 61.469512 82.936656 82.927644
380 84.846200 100.00000 88.766400 77.213986 91.067798 85.632264
381 35.291500 59.977800 45.891600 18.489822 26.024682 20.925929
382 49.391500 61.526300 56.793100 25.585303 30.472023 31.402451
383 55.048800 65.457400 68.020900 31.968425 36.065535 44.808515
384 60.370600 75.322100 70.709600 40.087957 47.594527 50.359726
385 16.409800 41.043000 30.549600 7.1737029 10.913429 8.9467139
386 32.040900 49.137800 30.310000 11.857330 16.708530 9.6356731
387 14.737500 16.249800 43.737500 4.5821273 3.3010188 15.592236
388 17.775800 26.428100 51.990500 7.2954399 6.2300575 22.984379
389 30.084200 36.901000 63.566100 13.475100 12.076969 35.763572
390 30.397700 42.991900 79.644400 19.381032 16.999830 58.679308
391 21.709800 46.654600 73.334400 16.964581 17.424330 49.617486
392 46.372100 54.116300 92.079000 31.646355 28.154873 82.735074
393 58.475400 78.862500 100.00000 51.239049 55.348139 103.32400
394 22.729200 60.437300 69.830600 21.030392 27.043852 46.409815
395 41.952800 66.458800 86.268500 32.889875 36.473175 73.115671
396 52.573400 74.503900 86.315900 40.863757 46.861057 74.708572
397 17.037100 9.7766000 0.0000000 1.4004810 1.2776603 0.2520122
398 31.328900 10.299300 5.4819000 3.7754592 2.5443926 0.7104259
399 35.050600 32.980400 15.286800 7.5527059 8.4751440 3.3487386
400 26.391600 53.768700 14.952800 11.248700 18.869920 5.1974620
401 27.086200 62.072200 32.352400 15.745741 25.980942 12.268977
402 24.088800 89.406300 53.231400 33.256065 57.609560 33.054912
403 24.687700 100.00000 71.415400 45.131868 74.993574 56.904187
404 0.0000000 14.784300 54.445000 5.4225595 3.3779458 24.641284
405 16.517200 13.804800 83.477400 13.744850 6.7525646 63.350139
406 68.080300 11.761800 88.303600 31.947165 15.810750 72.420481
407 86.642100 43.548900 91.702600 50.873309 33.110064 81.437013
408 70.194200 19.140300 72.397400 28.808144 15.669010 47.187005
409 49.969000 13.976700 50.026700 13.502730 7.5745458 21.009309
410 62.436100 15.283300 54.181400 19.897372 10.971049 24.864640
411 62.300200 34.528000 61.560100 23.994843 16.858740 33.689692
412 81.894100 45.057500 69.297600 40.497997 29.120453 44.787885
413 33.128800 16.268300 28.789800 5.6899332 4.0716909 6.6901903
414 36.074600 25.542000 30.094300 7.5915289 6.5315765 7.7918326
415 44.784800 28.107500 74.994800 18.788882 12.075319 50.541676
416 49.895600 47.043900 77.694500 25.649523 22.002001 56.130517
417 70.041300 13.417900 48.136200 23.007153 12.450949 19.541488
418 93.624000 20.736500 68.645100 45.256708 24.555022 42.237324
419 50.235100 25.300700 34.284600 12.609670 9.1006951 9.9040602
420 56.393900 47.033500 43.634500 21.003882 20.373211 17.711908
421 71.280800 80.725000 53.895900 45.363058 55.447429 32.017961
422 75.895100 81.420500 66.696100 51.433689 59.005320 46.663085
423 91.233300 90.189800 67.809800 69.183534 76.745844 50.540476
424 12.824600 10.559600 4.6039000 1.1405818 1.2115083 0.5649984
425 12.507900 12.923000 20.707100 1.8763740 1.7643354 3.7901152
426 29.343500 20.438500 51.160400 8.1977891 5.6757073 21.738078
427 38.373500 29.682600 51.064300 11.632890 9.3646292 22.245859
428 26.357400 13.640400 71.233300 11.463550 5.9654744 44.797554
429 55.138300 38.889700 70.895400 23.888483 17.959670 45.851035
430 59.832300 0.0000000 32.766700 14.890491 7.5779318 8.6836038
431 69.632000 15.860600 39.092000 21.620882 12.166519 12.807757
432 77.190600 60.813900 42.188300 37.182556 36.290245 18.955108
433 78.579400 73.497500 61.595000 47.294018 49.995308 38.964093
434 24.090200 36.698700 34.832900 7.5087919 9.5117382 10.804436
435 23.212300 80.859300 72.045700 31.833875 47.944757 53.345937
436 22.850400 86.931000 87.256100 40.445637 57.905620 79.294943
437 17.026600 25.740900 7.6053000 3.0113217 4.3689130 1.3914745
438 17.746000 39.400000 8.2699000 5.5817235 9.4606282 2.3861964
439 39.113500 49.850900 22.638400 13.336910 17.918780 6.9074884
440 58.514600 50.648700 31.767300 21.612362 22.545111 10.853036
441 68.125900 56.350300 56.439400 32.412295 30.951953 30.535951
442 68.689000 56.349100 69.315900 35.601236 32.304834 45.867645
443 71.622900 65.488100 85.688300 46.034018 42.830476 72.704351
444 73.308600 16.370900 31.162800 22.881583 13.020849 8.2965008
445 89.492100 16.485700 31.422700 34.879086 19.248491 8.8290519
446 84.110800 4.8791000 43.473500 31.043875 15.988230 15.899078
447 90.409800 24.473800 50.506500 39.184797 22.419141 22.496869
448 37.411800 6.4405000 12.400500 5.1943574 2.9550227 1.7543231
449 53.906300 11.964200 13.310000 11.305530 6.6182006 2.1975053
450 67.178900 17.829200 21.858700 18.664982 11.070829 4.7447519
451 87.327600 36.685000 45.104900 37.883296 25.166402 18.530968
452 100.00000 45.895400 60.477000 54.265210 36.886525 34.333422
453 28.559400 20.502300 7.9414000 4.1022569 3.9730449 1.2688979
454 40.421000 27.217000 16.496900 8.1187361 7.2396307 3.3225726
455 39.647700 36.302600 45.849900 12.372330 11.743659 18.333158
456 43.134200 48.709900 55.668700 18.372472 19.516041 28.429271
457 71.767900 77.258700 84.738900 51.510860 54.681059 72.683801
458 72.970400 86.035500 87.420300 58.392281 66.073872 79.610753
459 88.196400 90.121300 100.00000 77.467926 79.951125 106.41690
460 81.637600 34.987300 16.481700 30.097664 20.771621 4.3950108
461 80.971700 46.817600 19.975500 32.584715 26.464882 6.3464823
462 77.712300 56.810700 14.715800 33.536395 32.268304 6.2173043
463 87.748600 71.826000 38.426100 49.846139 50.579448 18.321988
464 0.0000000 23.108200 25.888600 2.5095953 3.4826868 5.6854382
465 0.0000000 32.403000 26.818500 3.9732171 6.4083845 6.4980773
466 0.0000000 35.448500 45.391400 6.6369087 8.3610790 17.684498
467 13.349400 35.308400 62.170400 10.484810 10.056928 34.189752
468 13.344400 47.828700 63.657600 13.915160 16.650650 36.694453
469 17.414900 55.400900 90.294600 24.794003 25.298892 78.941133
470 2.3364000 0.0000000 0.0000000 0.1017626 0.0831787 0.0697684
471 15.665700 51.398600 54.934100 13.472580 18.337520 27.759560
472 31.038200 61.643100 56.780900 20.083032 27.604753 31.257211
473 17.426700 64.668800 20.437300 14.677371 27.287853 8.1260067
474 53.949700 76.970800 19.404100 30.289014 44.618087 10.230466
475 69.730500 85.570100 17.291700 43.221238 59.166780 11.726847
476 88.009100 100.00000 19.865700 66.448603 86.945837 16.413988
477 44.151600 20.526000 0.0000000 8.0898971 6.0431954 0.7182049
478 47.302300 20.999100 11.190600 9.5573084 6.9224346 2.0210992
479 48.257100 29.375700 29.384200 11.983340 9.7391953 7.7647616
480 50.778100 39.235800 28.592300 14.762541 14.147349 8.1393847
481 58.347700 49.103900 55.965300 24.664483 22.990271 29.070971
482 11.450700 14.108100 29.955100 2.4938096 2.1501875 7.0576767
483 14.228800 32.278700 85.537800 16.427361 11.512469 67.602280
484 19.669500 43.971500 93.544400 22.726533 18.540390 84.476764
485 15.991200 16.980700 62.780400 8.2491280 4.9213131 33.684620
486 18.923400 28.463700 69.584600 11.528870 8.5601860 42.620304
487 34.086200 34.122500 81.231300 18.585612 13.368979 60.397278
488 57.067000 81.395000 84.533300 46.324418 55.782229 73.325261
489 69.500000 93.017500 85.110800 60.284882 74.386844 76.867402
490 0.0000000 50.645700 60.941000 13.457040 17.757820 33.730062
491 0.0000000 49.813500 76.525600 17.153141 18.857370 54.304897
492 0.0000000 85.022400 80.570000 34.995076 53.320449 66.344590
493 31.295400 89.282800 100.00000 48.621009 64.156151 105.41480
494 90.170700 39.775200 38.272000 39.846607 27.224313 14.095817
495 100.00000 73.138700 54.671900 64.120353 58.940210 32.106901
496 100.00000 88.655200 84.196500 80.931427 80.741285 75.254012
497 25.156900 7.5307000 10.832000 2.5590509 1.6680454 1.3998478
498 25.542300 15.722700 19.559300 3.5635625 2.9812087 3.5787812
499 22.264600 16.311900 10.953000 2.7700036 2.7131126 1.6081465
500 24.041700 24.387100 12.543800 3.8311989 4.4708640 2.1936656
501 33.818900 28.832700 22.589300 6.9916808 7.0866607 5.0914820
502 67.825200 29.695100 51.715700 24.114683 15.824170 23.341389
503 84.854200 30.211000 59.091600 36.879146 22.385151 31.229751
504 61.447300 40.437300 37.965100 20.892552 17.660530 13.318937
505 63.221000 44.655400 48.611500 24.344833 21.007841 21.612849
506 38.814500 26.504500 40.115900 9.5509634 7.6869248 13.370117
507 40.562200 26.525700 88.076400 21.412802 12.624909 72.663971
508 82.774100 0.0000000 79.586900 38.009076 18.540160 57.378318
509 91.176300 19.549100 83.957900 47.229548 24.913872 65.227129
510 46.512400 8.0736000 24.291800 8.8731382 4.9284471 4.9514363
511 51.894200 62.053500 27.640400 22.575783 29.594913 10.322516
512 68.682700 64.486800 42.355600 33.414025 36.574165 19.289338
513 9.7890000 17.474400 9.6210000 1.5765804 2.2525875 1.4054333
514 12.288400 24.018300 21.943300 2.9394246 3.8887959 4.4964496
515 14.712200 31.430300 35.716200 5.4207404 6.7758376 10.790396
516 20.838600 42.553800 49.516800 10.493760 12.970389 21.689629
517 30.393900 43.151100 57.441000 13.733410 14.654099 29.324591
518 44.522700 42.933100 61.027600 18.361792 16.817100 33.729842
519 0.0000000 0.0000000 0.0000000 0.0570789 0.0599759 0.0654997
520 16.884700 6.9027000 9.9496000 1.4492335 1.0685152 1.1602799
521 21.291600 10.067100 22.298300 2.6854200 1.9014534 4.2063702
522 42.560100 12.077900 31.610300 8.3571691 4.9575722 8.1270069
523 52.034400 12.965100 65.165200 17.331841 9.1022501 36.651273
524 82.059500 10.710500 66.142200 34.178245 17.558690 38.574353
525 84.143300 18.283300 91.344600 44.384998 22.983771 79.055633
526 83.284500 68.805400 100.00000 60.767072 52.210599 101.85710
527 8.0432000 5.0758000 13.015300 0.7768184 0.5846351 1.6765946
528 9.4125000 5.8398000 20.475200 1.2242980 0.8250652 3.5110206
529 11.432900 6.3849000 34.954000 2.5146622 1.3905063 9.4291886
530 32.892900 9.1946000 45.694400 7.1925444 3.8650069 17.011500
531 51.399400 69.538100 53.044800 29.168704 37.798855 28.797881
532 57.573700 82.565900 54.928100 39.517767 54.193889 33.400082
533 10.781800 28.584400 15.060300 3.1334128 5.0242222 2.8791001
534 20.586700 30.983200 22.815000 4.8965883 6.5142505 5.1344410
535 31.476900 37.809700 25.366000 8.2631081 10.258478 6.5721224
536 32.645000 75.270700 74.619800 31.177975 42.817026 55.580267
537 50.254500 87.160200 80.995900 45.663338 60.845651 68.437120
538 15.375300 79.016700 17.779300 21.449422 41.696816 9.9088492
539 45.923400 87.107400 18.545000 33.199415 55.522649 12.090707
540 45.089500 90.005700 56.942700 39.750977 61.683611 36.965403
541 79.918600 66.328400 0.0000000 38.652016 40.819716 5.6417431
542 88.425700 69.970200 19.341600 47.539629 48.032478 9.5256801
543 33.289400 76.053400 22.209000 23.088303 40.189236 10.764516
544 36.375500 76.167800 43.108800 25.945393 41.453286 21.524179
545 40.047800 77.258800 58.887000 30.285184 44.364257 36.049002
546 12.271000 46.914900 20.933000 7.6570500 13.627649 5.8733242
547 18.863500 48.269200 43.633100 10.880640 15.642550 17.470128
548 30.336400 54.684700 72.749400 20.936762 23.438272 49.974906
549 41.085300 59.349900 88.182900 30.390294 30.585873 75.773162
550 85.322900 76.758700 89.766600 62.763622 60.002000 82.522484
551 64.290200 31.167300 31.052200 19.585612 14.084789 8.8033889
552 77.995300 43.074300 39.621300 31.344085 24.141802 14.853607
553 87.946300 57.258700 45.500300 44.384248 37.847185 21.045679
554 91.644900 57.550900 56.857500 49.731479 40.652656 31.611951
555 26.424200 4.0180000 18.858500 2.9577455 1.6298704 3.1171832
556 44.817300 19.736700 19.190300 8.7648522 6.2259555 3.7454326
557 45.850900 25.207400 55.422700 14.052091 9.4251842 26.151250
558 61.114500 50.219800 72.771500 30.344804 26.070382 49.829946
559 74.082800 50.767400 73.336900 37.758196 30.121333 50.645396
560 45.305600 35.817800 36.009800 12.799970 11.863619 11.578487
561 50.909100 36.762700 44.518000 16.267001 13.917869 17.585278
562 65.656500 40.039600 86.294700 33.785835 23.035131 70.157991
563 68.095700 56.656300 89.023900 41.431017 34.686224 77.304112
564 0.0000000 64.154300 41.238800 15.306531 27.067652 17.820928
565 13.558800 75.748900 40.199000 21.514142 38.873155 19.328748
566 60.700900 83.044300 68.139700 44.156298 56.650060 48.728145
567 73.909900 85.545900 76.423600 55.058010 64.294141 61.193498
568 88.811700 93.954600 84.866200 74.582085 83.095246 76.885672
569 47.306000 50.950900 32.464200 17.232041 20.459061 11.156796
570 53.012300 52.418400 42.444700 21.105982 23.171012 17.440238
571 67.413200 60.630700 51.088600 32.642985 33.795784 25.823390
572 89.106900 73.309400 67.255300 56.986691 54.903839 46.373335
573 88.375700 84.780000 75.841200 65.059713 68.772862 60.164428
574 45.294900 55.384500 44.571400 19.562932 23.814312 19.467978
575 100.00000 85.986100 50.455400 70.674234 73.510224 30.983001
576 42.096400 52.270000 8.5783000 14.303121 19.657591 3.9133897
577 56.637800 55.521400 20.380800 21.623652 25.352522 7.1336655
578 63.749900 16.794600 9.0026000 16.326771 9.8122283 1.6719142
579 66.946000 31.314400 16.264300 20.119962 14.565429 3.7996507
580 87.988100 43.679700 30.785000 38.128856 27.931593 10.283216
581 89.044400 61.968800 34.444600 45.844528 41.644616 14.382297
582 89.093700 66.267000 69.360200 54.007230 48.045568 47.753365
583 60.626700 67.820900 47.877200 31.713205 38.034285 24.051400
584 63.727100 68.182500 57.609100 35.288236 39.996206 33.498032
585 78.384500 68.797100 68.537700 46.620948 45.916797 46.788585
586 92.113500 80.000700 81.173200 67.049653 65.318042 67.732160
587 19.039500 5.4444000 53.047500 5.8451434 2.7812366 22.993829
588 26.339500 16.890900 100.00000 21.602792 10.596179 96.139257
END_DATA
CAL    

DESCRIPTOR "Argyll Device Calibration State"
ORIGINATOR "Argyll dispread"
CREATED "Mon Sep 28 22:28:22 2020"
DEVICE_CLASS "DISPLAY"
COLOR_REP "RGB"

BEGIN_ARGYLL_DISPCAL_ARGS
-v2 -ql -m -w0.3127,0.329 -gs -f1.0 -k0 -A4.0 -d1 -c1 -yn -P0.499094202899,0.496212121212,1.24580152672
END_ARGYLL_DISPCAL_ARGS


NUMBER_OF_FIELDS 4
BEGIN_DATA_FORMAT
RGB_I RGB_R RGB_G RGB_B
END_DATA_FORMAT

NUMBER_OF_SETS 256
BEGIN_DATA
0.00000000 0.00000000 0.00000000 0.00000000
0.00392157 0.00907472 0.00906878 0.00900743
0.00784314 0.01726700 0.01722060 0.01714280
0.01176470 0.02469950 0.02458780 0.02452680
0.01568630 0.03147330 0.03127860 0.03125910
0.01960780 0.03767050 0.03738450 0.03742200
0.02352940 0.04335240 0.04299410 0.04308460
0.02745100 0.04858890 0.04819320 0.04832150
0.03137250 0.05346190 0.05306240 0.05321470
0.03529410 0.05803410 0.05765990 0.05782900
0.03921570 0.06235300 0.06202960 0.06220900
0.04313730 0.06646280 0.06621260 0.06639910
0.04705880 0.07041110 0.07024910 0.07044050
0.05098040 0.07423750 0.07417450 0.07437150
0.05490200 0.07797410 0.07801610 0.07822150
0.05882350 0.08165240 0.08179360 0.08201190
0.06274510 0.08529190 0.08552510 0.08576290
0.06666670 0.08890040 0.08921660 0.08948440
0.07058820 0.09248900 0.09288690 0.09319460
0.07450980 0.09606060 0.09653380 0.09689230
0.07843140 0.09961890 0.10016500 0.10058500
0.08235290 0.10317800 0.10378500 0.10427500
0.08627450 0.10673300 0.10739000 0.10795600
0.09019610 0.11028700 0.11099200 0.11163700
0.09411760 0.11384900 0.11458900 0.11531900
0.09803920 0.11741000 0.11818000 0.11900000
0.10196100 0.12096800 0.12176500 0.12267700
0.10588200 0.12453200 0.12536400 0.12636100
0.10980400 0.12810600 0.12896700 0.13004200
0.11372500 0.13168100 0.13257500 0.13371800
0.11764700 0.13525700 0.13617600 0.13738000
0.12156900 0.13882300 0.13977100 0.14103200
0.12549000 0.14239500 0.14337600 0.14468700
0.12941200 0.14598000 0.14697900 0.14833400
0.13333300 0.14956700 0.15057500 0.15197200
0.13725500 0.15315900 0.15417100 0.15560700
0.14117600 0.15675500 0.15774600 0.15922300
0.14509800 0.16033600 0.16129700 0.16281900
0.14902000 0.16390800 0.16483900 0.16641000
0.15294100 0.16748600 0.16837800 0.17000000
0.15686300 0.17106900 0.17190200 0.17357300
0.16078400 0.17464100 0.17540700 0.17712600
0.16470600 0.17820200 0.17889900 0.18066600
0.16862700 0.18175500 0.18237700 0.18419000
0.17254900 0.18529400 0.18582000 0.18767500
0.17647100 0.18880400 0.18923000 0.19112500
0.18039200 0.19229200 0.19260800 0.19454000
0.18431400 0.19575600 0.19595800 0.19792500
0.18823500 0.19920900 0.19929500 0.20129400
0.19215700 0.20266200 0.20262500 0.20464900
0.19607800 0.20611000 0.20593600 0.20798000
0.20000000 0.20954300 0.20922900 0.21128700
0.20392200 0.21296200 0.21250300 0.21456800
0.20784300 0.21637000 0.21577200 0.21783900
0.21176500 0.21978600 0.21904300 0.22110700
0.21568600 0.22321400 0.22231700 0.22437000
0.21960800 0.22664200 0.22557700 0.22761400
0.22352900 0.23005800 0.22882500 0.23084300
0.22745100 0.23348200 0.23207900 0.23407100
0.23137300 0.23692500 0.23533900 0.23729800
0.23529400 0.24038200 0.23860300 0.24052000
0.23921600 0.24386000 0.24187600 0.24373800
0.24313700 0.24737500 0.24517400 0.24696600
0.24705900 0.25094100 0.24851000 0.25022200
0.25098000 0.25455100 0.25188100 0.25350900
0.25490200 0.25818600 0.25527400 0.25681800
0.25882400 0.26184600 0.25868900 0.26014800
0.26274500 0.26552800 0.26212600 0.26349800
0.26666700 0.26923300 0.26558400 0.26687000
0.27058800 0.27294400 0.26904900 0.27025300
0.27451000 0.27667200 0.27253500 0.27365200
0.27843100 0.28042000 0.27604400 0.27707600
0.28235300 0.28419400 0.27958400 0.28053000
0.28627500 0.28799100 0.28315900 0.28401700
0.29019600 0.29176900 0.28674600 0.28753000
0.29411800 0.29550900 0.29031100 0.29103300
0.29803900 0.29922300 0.29386000 0.29452100
0.30196100 0.30292700 0.29740100 0.29800400
0.30588200 0.30662900 0.30094700 0.30149400
0.30980400 0.31033100 0.30450200 0.30499300
0.31372500 0.31401200 0.30805900 0.30850400
0.31764700 0.31768100 0.31160200 0.31201100
0.32156900 0.32133800 0.31514200 0.31551600
0.32549000 0.32498600 0.31867700 0.31902200
0.32941200 0.32862700 0.32221000 0.32253100
0.33333300 0.33226600 0.32574900 0.32604500
0.33725500 0.33592200 0.32929600 0.32956900
0.34117600 0.33959600 0.33286800 0.33311000
0.34509800 0.34327200 0.33644800 0.33667700
0.34902000 0.34695000 0.34002900 0.34025300
0.35294100 0.35062800 0.34360900 0.34383600
0.35686300 0.35430600 0.34719000 0.34742700
0.36078400 0.35798100 0.35077400 0.35102700
0.36470600 0.36167500 0.35435900 0.35463800
0.36862700 0.36538800 0.35796300 0.35826200
0.37254900 0.36909900 0.36159100 0.36191800
0.37647100 0.37280400 0.36521600 0.36559800
0.38039200 0.37651600 0.36883700 0.36927700
0.38431400 0.38024100 0.37246200 0.37296200
0.38823500 0.38397100 0.37610100 0.37666100
0.39215700 0.38772100 0.37974800 0.38036800
0.39607800 0.39150800 0.38340900 0.38407900
0.40000000 0.39534500 0.38709600 0.38780700
0.40392200 0.39923400 0.39082100 0.39156200
0.40784300 0.40315700 0.39458600 0.39535200
0.41176500 0.40704900 0.39838300 0.39917600
0.41568600 0.41090100 0.40215300 0.40300200
0.41960800 0.41472200 0.40588000 0.40678100
0.42352900 0.41852400 0.40957300 0.41051200
0.42745100 0.42232000 0.41324300 0.41421100
0.43137300 0.42610700 0.41690900 0.41789400
0.43529400 0.42988900 0.42056800 0.42157700
0.43921600 0.43367800 0.42422300 0.42525500
0.44313700 0.43746600 0.42788500 0.42893300
0.44705900 0.44125700 0.43154800 0.43261200
0.45098000 0.44506200 0.43521300 0.43628700
0.45490200 0.44886400 0.43889400 0.43996400
0.45882400 0.45264700 0.44258700 0.44365500
0.46274500 0.45642200 0.44627200 0.44734400
0.46666700 0.46020200 0.44995500 0.45102000
0.47058800 0.46398600 0.45365100 0.45469600
0.47451000 0.46775000 0.45737000 0.45838900
0.47843100 0.47151100 0.46109500 0.46209500
0.48235300 0.47527200 0.46482100 0.46579600
0.48627500 0.47903200 0.46856000 0.46950200
0.49019600 0.48278900 0.47230700 0.47321400
0.49411800 0.48654600 0.47606000 0.47693100
0.49803900 0.49030100 0.47981700 0.48064900
0.50196100 0.49405500 0.48357700 0.48436900
0.50588200 0.49780700 0.48734000 0.48809000
0.50980400 0.50158100 0.49110700 0.49181200
0.51372500 0.50538100 0.49489000 0.49553500
0.51764700 0.50918200 0.49871500 0.49927800
0.52156900 0.51298500 0.50254800 0.50305700
0.52549000 0.51678800 0.50638800 0.50684000
0.52941200 0.52059400 0.51023300 0.51062500
0.53333300 0.52440000 0.51408500 0.51441400
0.53725500 0.52820700 0.51794400 0.51820600
0.54117600 0.53201600 0.52181500 0.52200200
0.54509800 0.53582700 0.52569800 0.52580400
0.54902000 0.53962300 0.52959700 0.52961200
0.55294100 0.54342700 0.53349100 0.53343100
0.55686300 0.54724700 0.53739500 0.53724500
0.56078400 0.55106100 0.54131600 0.54106700
0.56470600 0.55486700 0.54522500 0.54490100
0.56862700 0.55867800 0.54911700 0.54872100
0.57254900 0.56249600 0.55300200 0.55252300
0.57647100 0.56633400 0.55688200 0.55631600
0.58039200 0.57020600 0.56076800 0.56010900
0.58431400 0.57410200 0.56467200 0.56390900
0.58823500 0.57796900 0.56858300 0.56773000
0.59215700 0.58180200 0.57245000 0.57156800
0.59607800 0.58561400 0.57627700 0.57537900
0.60000000 0.58941900 0.58007800 0.57915500
0.60392200 0.59321400 0.58386800 0.58290800
0.60784300 0.59700200 0.58764100 0.58666100
0.61176500 0.60078600 0.59140300 0.59040900
0.61568600 0.60458000 0.59515800 0.59415400
0.61960800 0.60838000 0.59892000 0.59789900
0.62352900 0.61218400 0.60268600 0.60166000
0.62745100 0.61599400 0.60645400 0.60543200
0.63137300 0.61979300 0.61022800 0.60921300
0.63529400 0.62357200 0.61398600 0.61300200
0.63921600 0.62734000 0.61772800 0.61679300
0.64313700 0.63110100 0.62146000 0.62057100
0.64705900 0.63485400 0.62519100 0.62434400
0.65098000 0.63859400 0.62891600 0.62811300
0.65490200 0.64233300 0.63264400 0.63187400
0.65882400 0.64608700 0.63638600 0.63562300
0.66274500 0.64987800 0.64015900 0.63937600
0.66666700 0.65371700 0.64398000 0.64314000
0.67058800 0.65761500 0.64786300 0.64693900
0.67451000 0.66157300 0.65182200 0.65078900
0.67843100 0.66559500 0.65586200 0.65470700
0.68235300 0.66965600 0.65998500 0.65869900
0.68627500 0.67365400 0.66411300 0.66276600
0.69019600 0.67757300 0.66816900 0.66689000
0.69411800 0.68141400 0.67215000 0.67096600
0.69803900 0.68517800 0.67606000 0.67497500
0.70196100 0.68887900 0.67991200 0.67891500
0.70588200 0.69253500 0.68372300 0.68279500
0.70980400 0.69617000 0.68751100 0.68663200
0.71372500 0.69979500 0.69129200 0.69044500
0.71764700 0.70342000 0.69506800 0.69425400
0.72156900 0.70705300 0.69885100 0.69806400
0.72549000 0.71069000 0.70263700 0.70188300
0.72941200 0.71433100 0.70642500 0.70571000
0.73333300 0.71799200 0.71022400 0.70953500
0.73725500 0.72167100 0.71402900 0.71335900
0.74117600 0.72537300 0.71784200 0.71718300
0.74509800 0.72910200 0.72166400 0.72100500
0.74902000 0.73283600 0.72546700 0.72482800
0.75294100 0.73658300 0.72926100 0.72863500
0.75686300 0.74035900 0.73305400 0.73240800
0.76078400 0.74416500 0.73684700 0.73616400
0.76470600 0.74800300 0.74064000 0.73990200
0.76862700 0.75188800 0.74444700 0.74362600
0.77254900 0.75581100 0.74827400 0.74733700
0.77647100 0.75976800 0.75211800 0.75105900
0.78039200 0.76375600 0.75598000 0.75480000
0.78431400 0.76776800 0.75985500 0.75856000
0.78823500 0.77180200 0.76374400 0.76234000
0.79215700 0.77583000 0.76762600 0.76614300
0.79607800 0.77985700 0.77150500 0.76996300
0.80000000 0.78389400 0.77538900 0.77378700
0.80392200 0.78794000 0.77928100 0.77762400
0.80784300 0.79202400 0.78320200 0.78148300
0.81176500 0.79616100 0.78716700 0.78536900
0.81568600 0.80035600 0.79118200 0.78930600
0.81960800 0.80455600 0.79521400 0.79330400
0.82352900 0.80870800 0.79920200 0.79736700
0.82745100 0.81281500 0.80314600 0.80144900
0.83137300 0.81690200 0.80706800 0.80549700
0.83529400 0.82098400 0.81098200 0.80951600
0.83921600 0.82507500 0.81490800 0.81352500
0.84313700 0.82916800 0.81884400 0.81754100
0.84705900 0.83326400 0.82278900 0.82158400
0.85098000 0.83736700 0.82674500 0.82564500
0.85490200 0.84147500 0.83071800 0.82972400
0.85882400 0.84558100 0.83470700 0.83382800
0.86274500 0.84969600 0.83871200 0.83795600
0.86666700 0.85385000 0.84275100 0.84210700
0.87058800 0.85804700 0.84683800 0.84628200
0.87451000 0.86223600 0.85095900 0.85050700
0.87843100 0.86638900 0.85505700 0.85479200
0.88235300 0.87053000 0.85913700 0.85909200
0.88627500 0.87467600 0.86322400 0.86337900
0.89019600 0.87883300 0.86731800 0.86767400
0.89411800 0.88300700 0.87143300 0.87199200
0.89803900 0.88720800 0.87557100 0.87633300
0.90196100 0.89143300 0.87974200 0.88069600
0.90588200 0.89564900 0.88393100 0.88509300
0.90980400 0.89985900 0.88812400 0.88951800
0.91372500 0.90407900 0.89233100 0.89394500
0.91764700 0.90832800 0.89656900 0.89838600
0.92156900 0.91260000 0.90085000 0.90285600
0.92549000 0.91687300 0.90514100 0.90736500
0.92941200 0.92116600 0.90944000 0.91188000
0.93333300 0.92548300 0.91377100 0.91639800
0.93725500 0.92978900 0.91811400 0.92095200
0.94117600 0.93410800 0.92246400 0.92552000
0.94509800 0.93842900 0.92683700 0.93011200
0.94902000 0.94276000 0.93121300 0.93472900
0.95294100 0.94710200 0.93560200 0.93936700
0.95686300 0.95145800 0.94000300 0.94402700
0.96078400 0.95582700 0.94441700 0.94870500
0.96470600 0.96020600 0.94884100 0.95340400
0.96862700 0.96459700 0.95327900 0.95812500
0.97254900 0.96900100 0.95773300 0.96286400
0.97647100 0.97341300 0.96220600 0.96762400
0.98039200 0.97783200 0.96670000 0.97240400
0.98431400 0.98225700 0.97121400 0.97720500
0.98823500 0.98669000 0.97574900 0.98202800
0.99215700 0.99113000 0.98030500 0.98687200
0.99607800 0.99557800 0.98488200 0.99173800
1.00000000 1.00000000 0.98948100 0.99662500
END_DATA
