CTI3   

DESCRIPTOR "Argyll Calibration Target chart information 3"
ORIGINATOR "Argyll dispread"
CREATED "Thu Dec 06 13:30:38 2018"
DEVICE_CLASS "DISPLAY"
SINGLE_DIM_STEPS "17"
COMP_GREY_STEPS "49"
DARK_REGION_EMPHASIS "1.6"
COLOR_REP "RGB_XYZ"
TARGET_INSTRUMENT "X-Rite i1 DisplayPro, ColorMunki Display"
DISPLAY_TYPE_REFRESH "NO"
DISPLAY_TYPE_BASE_ID "1"
INSTRUMENT_TYPE_SPECTRAL "NO"
LUMINANCE_XYZ_CDM2 "32.503475 34.037865 37.168656"
NORMALIZED_TO_Y_100 "YES"
VIDEO_LUT_CALIBRATION_POSSIBLE "YES"

BEGIN_ARGYLL_COLPROF_ARGS
-v -qh -aX -bn -C "No copyright. Created with DisplayCAL 3.7.1.3 and ArgyllCMS 2.0.1" -M "DELL S2317HWi" -A "Dell, Inc."
END_ARGYLL_COLPROF_ARGS

OBSERVER "1931_2"
USE_BLACK_POINT_COMPENSATION "NO"
BLACK_POINT_CORRECTION "0.0"
HIRES_B2A "YES"
HIRES_B2A_SIZE "-1"
SMOOTH_B2A "YES"
PATCH_SEQUENCE "OPTIMIZE_DISPLAY_RESPONSE_DELAY"

NUMBER_OF_FIELDS 7
BEGIN_DATA_FORMAT
SAMPLE_ID RGB_R RGB_G RGB_B XYZ_X XYZ_Y XYZ_Z
END_DATA_FORMAT

NUMBER_OF_SETS 417
BEGIN_DATA
1 100.00000 100.00000 100.00000 95.492110 100.00000 109.19800
2 1.9608000 1.9608000 1.9608000 0.2052720 0.2103020 0.3242990
3 3.9216000 3.9216000 3.9216000 0.3036320 0.3136540 0.4233590
4 5.8824000 5.8824000 5.8824000 0.5099250 0.5403150 0.6710700
5 9.8039000 9.8039000 9.8039000 1.0249890 1.0729880 1.2506370
6 13.726000 13.726000 13.726000 1.7942130 1.8806040 2.1076850
7 17.647000 17.647000 17.647000 2.6640410 2.7797660 3.1439630
8 21.569000 21.569000 21.569000 3.7478620 3.9558470 4.3956990
9 25.490000 25.490000 25.490000 5.0542020 5.3842690 5.8369680
10 29.412000 29.412000 29.412000 6.6537580 6.9989720 7.6863240
11 33.333000 33.333000 33.333000 8.6147520 9.1023810 9.9868690
12 37.255000 37.255000 37.255000 10.848050 11.278850 12.379290
13 41.176000 41.176000 41.176000 13.568140 14.252190 15.442240
14 45.098000 45.098000 45.098000 16.355470 17.178490 18.805450
15 49.020000 49.020000 49.020000 19.791830 20.792180 22.761850
16 52.941000 52.941000 52.941000 23.354650 24.530110 26.843570
17 56.863000 56.863000 56.863000 27.338240 28.510440 31.514300
18 60.784000 60.784000 60.784000 31.850250 33.329140 36.935310
19 64.706000 64.706000 64.706000 36.396230 38.053470 42.237900
20 68.627000 68.627000 68.627000 41.578300 43.524120 47.763720
21 72.549000 72.549000 72.549000 46.927400 49.472160 53.452300
22 76.471000 76.471000 76.471000 52.047950 54.871290 60.063520
23 80.392000 80.392000 80.392000 58.474450 61.745480 67.424560
24 84.314000 84.314000 84.314000 64.953540 68.404810 75.469670
25 88.235000 88.235000 88.235000 72.217960 75.795760 82.629000
26 92.157000 92.157000 92.157000 79.681600 84.093870 91.021460
27 96.078000 96.078000 96.078000 87.522180 92.153120 99.586840
28 0.0000000 33.699200 36.296400 5.5561200 7.6274920 11.458980
29 10.628300 38.281000 46.872700 8.6195980 10.443930 20.006770
30 56.292500 38.472400 64.894400 23.267750 17.575010 40.428810
31 69.793100 51.678800 70.549400 35.224020 29.508610 49.405940
32 44.947000 13.524200 14.268400 7.6650330 4.8541110 2.2406310
33 61.164200 13.556200 17.492700 14.431130 8.3866880 3.3670250
34 70.533300 15.800300 40.293600 21.430760 11.976960 14.702420
35 88.397000 23.778700 85.277800 45.674540 24.521880 73.031430
36 100.00000 41.582100 84.696700 58.729720 36.552150 73.234500
37 70.044200 0.0000000 62.849600 24.717920 11.954600 37.366760
38 69.869100 83.716700 75.790000 52.563480 61.773620 59.165920
39 0.0000000 75.901400 66.298600 27.478440 42.149880 43.838670
40 35.187300 77.953800 81.309300 37.620790 48.634820 68.030900
41 67.701500 96.374800 86.433200 64.750830 81.259170 80.239790
42 85.268600 100.00000 86.668600 77.499520 91.536570 81.421050
43 58.330200 66.627900 0.0000000 26.256140 34.683350 2.9860040
44 76.424300 82.834200 0.0000000 44.737290 57.641980 4.7959330
45 85.776200 89.088800 23.034200 56.289360 69.728970 10.323550
46 14.919800 10.930200 28.940200 2.6088750 1.8642850 7.0073440
47 17.555000 13.189900 43.944100 5.0372140 3.1671010 16.842320
48 91.682900 18.280800 49.683100 37.828460 20.654620 23.260140
49 100.00000 32.031100 51.598400 47.341500 28.374120 26.095200
50 31.250000 0.0000000 0.0000000 3.0060190 1.5995120 0.2502700
51 36.885200 0.0000000 0.0000000 4.3579970 2.2979260 0.2750740
52 57.823700 0.0000000 75.666100 22.176420 10.227380 54.589050
53 64.579900 36.558900 85.479200 33.295830 21.403230 73.713170
54 85.867000 41.229000 84.991700 47.203310 30.397910 73.613640
55 100.00000 68.191600 84.473900 68.967510 56.872990 74.485590
56 0.0000000 2.9412000 0.0000000 0.1649860 0.2238980 0.2114840
57 0.0000000 13.157900 0.0000000 0.6826490 1.2623040 0.3066320
58 0.0000000 18.406700 16.363500 1.6057040 2.3869570 2.6818100
59 62.393400 100.00000 21.932900 50.627490 78.966690 11.063600
60 84.691800 100.00000 36.654800 64.964960 86.251260 18.482350
61 100.00000 100.00000 100.00000 95.353890 100.12100 109.34830
62 0.0000000 31.250000 0.0000000 2.7967790 5.4935890 0.6877430
63 0.0000000 36.885200 0.0000000 3.9293890 7.7557460 0.8925750
64 0.0000000 81.675600 0.0000000 22.484960 45.057710 4.2817290
65 0.0000000 87.209300 0.0000000 26.061460 52.033640 4.9099990
66 52.558100 86.893500 69.463700 44.925760 61.199700 50.198220
67 0.0000000 0.0000000 2.9412000 0.1306240 0.1098800 0.3510010
68 0.0000000 0.0000000 6.0976000 0.1855770 0.1316540 0.6292610
69 0.0000000 0.0000000 9.4937000 0.2704060 0.1654290 1.0599720
70 0.0000000 0.0000000 13.157900 0.4188500 0.2246570 1.8069520
71 0.0000000 0.0000000 17.123300 0.6005390 0.2981390 2.7307860
72 0.0000000 0.0000000 21.428600 0.8525620 0.3972340 3.9815220
73 0.0000000 0.0000000 26.119400 1.1723340 0.5247920 5.5963690
74 0.0000000 0.0000000 31.250000 1.6137510 0.7008200 7.8229070
75 0.0000000 0.0000000 36.885200 2.2132890 0.9416050 10.879030
76 0.0000000 0.0000000 43.103500 3.1542760 1.3148260 15.600000
77 0.0000000 0.0000000 50.000000 4.3864730 1.8082430 21.829360
78 0.0000000 0.0000000 57.692300 5.9783080 2.4432590 29.899620
79 0.0000000 0.0000000 66.326500 8.0674380 3.2723230 40.435230
80 0.0000000 0.0000000 76.087000 10.848640 4.3772450 54.440880
81 0.0000000 0.0000000 87.209300 14.785360 5.9298290 74.319270
82 29.582800 21.589100 100.00000 24.331700 12.310120 102.08650
83 32.011800 75.308800 100.00000 42.552260 48.134870 105.24950
84 1.9380000 1.9380000 1.9380000 0.2055050 0.2108160 0.3258090
85 2.9412000 2.9412000 2.9412000 0.2635610 0.2738810 0.3707520
86 3.9683000 3.9683000 3.9683000 0.3039550 0.3144350 0.4242510
87 5.0201000 5.0201000 5.0201000 0.4116760 0.4341590 0.5519760
88 6.0976000 6.0976000 6.0976000 0.5476360 0.5878300 0.6777070
89 7.2016000 7.2016000 7.2016000 0.6504660 0.6979370 0.8316750
90 8.3333000 8.3333000 8.3333000 0.7947570 0.8403580 0.9884130
91 9.4937000 9.4937000 9.4937000 0.9483120 0.9936060 1.1559440
92 10.683800 10.683800 10.683800 1.1793360 1.2474780 1.4423930
93 11.904800 11.904800 11.904800 1.3655560 1.4443900 1.6526380
94 13.157900 13.157900 13.157900 1.6900690 1.7719260 1.9818650
95 14.444400 14.444400 14.444400 1.8827160 1.9783310 2.2347550
96 15.765800 15.765800 15.765800 2.1829490 2.2969730 2.6119700
97 17.123300 17.123300 17.123300 2.5591860 2.6670480 3.0044290
98 18.518500 18.518500 18.518500 2.8998680 3.0417400 3.4295590
99 19.953100 19.953100 19.953100 3.2675390 3.4431680 3.8128180
100 21.428600 21.428600 21.428600 3.7529430 3.9617230 4.4051140
101 22.946900 22.946900 22.946900 4.2846480 4.5099010 5.0278030
102 24.509800 24.509800 24.509800 4.7090990 4.9531630 5.5159760
103 26.119400 26.119400 26.119400 5.3102450 5.5964730 6.2051560
104 27.777800 27.777800 27.777800 5.9446360 6.2595700 6.9925480
105 29.487200 29.487200 29.487200 6.6633360 7.0088040 7.7081490
106 31.250000 31.250000 31.250000 7.4995670 7.8895380 8.6904750
107 33.068800 33.068800 33.068800 8.3999730 8.8665340 9.7429070
108 34.946200 34.946200 34.946200 9.4576190 9.9133750 10.867410
109 36.885200 36.885200 36.885200 10.695200 11.211760 12.113500
110 38.888900 38.888900 38.888900 11.882800 12.438970 13.735590
111 40.960500 40.960500 40.960500 13.296060 13.978600 15.150050
112 43.103500 43.103500 43.103500 14.974930 15.603100 17.285620
113 45.321600 45.321600 45.321600 16.717180 17.571400 19.244140
114 47.619100 47.619100 47.619100 18.477690 19.399970 21.514870
115 50.000000 50.000000 50.000000 20.824900 21.718190 24.140670
116 52.469100 52.469100 52.469100 23.016440 24.154760 26.459550
117 55.031400 55.031400 55.031400 25.445250 26.687250 29.553160
118 57.692300 57.692300 57.692300 28.274270 29.489220 32.914960
119 60.457500 60.457500 60.457500 31.479980 32.976570 36.521600
120 63.333300 63.333300 63.333300 34.673330 36.329210 40.251580
121 66.326500 66.326500 66.326500 38.498190 40.326670 44.394180
122 69.444400 69.444400 69.444400 42.333210 44.559990 48.683940
123 72.695000 72.695000 72.695000 46.902330 49.518990 53.638470
124 76.087000 76.087000 76.087000 51.740090 54.428230 59.485420
125 79.629600 79.629600 79.629600 57.391840 60.536650 65.742580
126 83.333300 83.333300 83.333300 63.410430 66.873490 73.292000
127 87.209300 87.209300 87.209300 70.286700 73.727740 80.732830
128 91.269800 91.269800 91.269800 78.163440 82.130240 89.833910
129 100.00000 34.207700 0.0000000 42.698430 26.876780 1.5304410
130 100.00000 35.103300 22.005700 43.881110 27.932880 5.8673380
131 66.326500 0.0000000 0.0000000 15.526200 8.0674460 0.4782580
132 75.027800 0.0000000 19.483100 20.768590 10.692520 4.0139390
133 83.424100 17.376400 33.645400 28.768720 16.056940 10.194230
134 89.936400 20.537300 71.856800 41.884510 22.421500 50.318050
135 84.189700 0.0000000 83.217200 39.838820 19.017410 68.983240
136 41.636700 48.311600 37.035700 15.166200 18.225780 12.721440
137 58.023500 48.758700 38.468700 21.660540 21.741200 14.147180
138 74.594800 88.326800 41.719600 50.313490 65.812800 20.245580
139 100.00000 100.00000 52.016800 80.208730 93.941680 32.576400
140 0.0000000 66.326500 0.0000000 14.133480 28.157380 2.7474670
141 0.0000000 76.087000 0.0000000 19.192380 38.285520 3.6601400
142 24.531800 85.313000 17.912900 27.862750 51.771890 7.7152890
143 43.295500 86.689600 38.252600 34.715150 56.425320 17.366840
144 58.746600 87.394300 55.834600 44.452500 61.718260 33.184650
145 100.00000 0.0000000 55.753200 45.028190 22.635710 29.487640
146 100.00000 25.927500 68.439200 50.362030 27.912370 46.460450
147 100.00000 50.925400 68.938400 56.578320 40.137520 48.234010
148 67.653100 26.849400 31.628200 20.306030 13.378100 9.1486260
149 86.990000 34.580100 37.725600 34.734770 22.796810 13.319080
150 77.865800 43.709900 36.113800 30.177660 23.718070 12.616580
151 76.867800 43.641800 46.254500 30.959750 23.973080 20.370560
152 92.822500 53.729100 58.360400 48.848070 38.027790 34.498930
153 60.764300 19.432400 87.061700 29.118230 15.083670 75.678430
154 82.116800 27.587500 100.00000 47.385530 25.380860 102.92340
155 85.337800 72.656600 100.00000 65.663870 58.136430 105.87580
156 100.00000 84.698000 100.00000 84.673550 78.314470 107.53060
157 15.245500 63.602800 29.258500 15.383920 27.245820 9.5404890
158 37.564300 69.576900 40.229200 23.356880 35.381410 17.093730
159 19.667100 66.161900 47.958800 19.702840 31.057570 22.987710
160 37.716900 82.788600 55.001200 33.863880 51.896950 31.913080
161 44.795800 82.946700 76.908000 42.163340 56.028820 61.127120
162 69.808400 82.717000 87.392200 56.540010 62.620800 80.673140
163 0.0000000 53.421900 44.531800 12.341700 19.262320 18.646580
164 0.0000000 64.995200 100.00000 34.094800 35.948820 103.98680
165 0.0000000 81.998300 100.00000 43.589180 54.586470 105.64170
166 0.0000000 100.00000 100.00000 56.027320 79.789280 107.96020
167 83.921100 42.897500 0.0000000 31.546630 24.065970 1.6219470
168 91.578900 43.023900 32.058600 39.673060 28.500450 10.462770
169 100.00000 67.565500 66.540700 63.012990 53.821710 46.363980
170 34.676700 0.0000000 76.894800 14.920940 6.4268230 56.738020
171 43.193000 0.0000000 100.00000 26.195410 11.101990 102.04410
172 56.607600 32.130600 100.00000 34.415190 19.937110 102.71820
173 31.454000 20.696100 81.311900 17.146450 9.3785130 64.682130
174 47.747400 41.402100 87.145200 27.860530 20.516030 76.242800
175 0.0000000 52.716100 56.872900 14.368070 19.621590 30.285060
176 13.977200 61.523000 58.091400 19.179420 27.404570 33.229400
177 22.750400 62.947300 68.128400 23.392790 30.388710 46.209840
178 0.0000000 57.650200 74.544000 20.886200 25.241900 53.818620
179 0.0000000 73.986800 77.966800 29.977810 41.545090 61.123250
180 16.832600 82.263600 78.596600 36.111760 52.097820 63.336080
181 17.777000 86.233400 42.634700 29.907930 53.457340 20.416630
182 17.372500 88.266400 60.322300 34.757490 57.455590 38.691920
183 15.663000 37.063200 14.984700 5.2940250 8.5771990 2.9391040
184 41.168500 39.529900 64.391900 17.965860 15.361940 39.636260
185 80.356200 47.953000 61.151700 38.037790 29.362820 37.101570
186 0.0000000 0.0000000 0.0000000 0.1010230 0.0983128 0.2009320
187 0.9579000 0.9579000 0.9579000 0.1575140 0.1623800 0.2628520
188 18.929200 12.152600 20.656000 2.5327180 2.0524100 3.9589570
189 29.272900 23.056600 38.512000 6.8013490 5.6421210 12.820280
190 31.569200 36.629000 47.433000 11.042280 11.059400 20.816150
191 0.0000000 100.00000 68.973800 44.599900 75.223910 50.968930
192 0.0000000 100.00000 85.817800 50.070820 77.453230 78.939520
193 49.039800 100.00000 86.404600 58.842800 81.767390 80.518350
194 61.758100 24.233000 0.0000000 15.070190 10.330980 0.7454320
195 75.414700 27.137600 16.112400 23.144670 15.045930 3.4002760
196 88.933300 77.055200 15.400600 50.394910 55.350870 6.5571890
197 0.0000000 19.185600 74.317900 11.531970 6.5467930 52.135010
198 0.0000000 27.634200 100.00000 22.378540 12.490620 101.85150
199 0.0000000 48.377200 100.00000 27.470390 22.670990 102.76730
200 18.807900 15.785300 60.642900 8.8693400 5.0259340 34.538720
201 21.149800 49.302900 61.047400 16.019790 18.775290 36.298840
202 49.572900 50.687400 63.786000 23.738590 23.105680 39.762430
203 56.760300 64.168200 73.294200 34.940620 36.784620 53.906400
204 88.443400 73.797100 77.188900 59.579010 56.546650 61.030410
205 88.872300 79.130800 88.803500 67.428370 64.938560 82.675730
206 100.00000 84.510800 84.727200 78.338250 75.749610 77.161220
207 100.00000 100.00000 86.567600 90.062360 97.897530 82.223010
208 100.00000 100.00000 100.00000 95.400600 100.12260 109.56840
209 74.909700 52.399900 46.674300 32.773350 29.292290 21.262830
210 76.303900 57.413800 59.863300 38.337800 34.352850 36.041350
211 89.271200 72.838800 65.781400 56.746150 55.177810 44.982960
212 57.918400 83.491100 18.753200 36.670750 54.718920 8.0024850
213 57.114200 88.728500 89.948400 55.179870 67.252740 85.933910
214 60.636500 88.507200 100.00000 60.713670 69.813780 107.20980
215 81.417600 100.00000 100.00000 80.869680 92.627570 109.03070
216 0.0000000 34.411000 22.976600 4.3696570 7.2618390 5.1706960
217 0.0000000 51.674400 25.724300 9.3859730 17.007080 6.9325560
218 12.564500 51.650400 34.666800 10.859570 17.697020 11.292250
219 30.769100 54.128600 28.590100 13.447240 20.446200 8.4976230
220 36.490100 57.934000 42.400000 18.069230 24.779360 17.497100
221 38.273500 57.480200 52.606700 20.195280 25.428870 26.645560
222 53.975800 61.019000 52.051100 27.095040 31.346980 27.112230
223 34.160100 43.284800 21.729700 10.024860 13.263050 5.2127750
224 45.179900 56.161800 25.200200 17.759000 23.790410 7.4468440
225 57.201500 56.093000 35.618800 23.609340 26.724410 12.831840
226 70.572400 62.061000 56.319400 36.138720 36.444560 31.798990
227 15.841000 11.014200 0.0000000 1.3500890 1.3453240 0.2907150
228 28.233800 17.223400 0.0000000 3.4135400 3.1233300 0.4036440
229 48.748300 33.207200 9.7614000 11.436710 10.692570 1.9286720
230 100.00000 100.00000 0.0000000 74.980390 91.412610 7.4229860
231 100.00000 100.00000 29.746600 76.789030 92.462820 15.001690
232 0.0000000 0.0000000 0.0000000 0.1012030 0.0984237 0.2009650
233 9.4937000 0.0000000 0.0000000 0.4401020 0.2734670 0.2073340
234 13.157900 0.0000000 0.0000000 0.7425870 0.4302200 0.2126230
235 17.123300 0.0000000 0.0000000 1.0942420 0.6119480 0.2190610
236 34.974300 0.0000000 15.411900 4.2503200 2.1932040 2.4143750
237 52.208400 15.460900 27.657700 11.377330 6.8994660 6.9281480
238 0.0000000 100.00000 0.0000000 35.620480 71.205280 6.6793900
239 0.0000000 100.00000 29.381200 37.167580 72.030480 13.462000
240 38.699600 100.00000 32.731300 42.524010 74.834130 15.475740
241 35.270700 56.979700 0.0000000 13.939080 21.823910 2.0568340
242 56.394600 67.804500 45.549200 29.901160 37.496640 21.023720
243 39.641900 35.994400 0.0000000 8.8430920 10.019390 0.9526220
244 60.531200 37.730400 0.0000000 16.864870 14.578110 1.1482690
245 67.501600 40.193700 17.545200 21.701080 18.177130 4.1790830
246 87.177000 42.425400 17.476400 34.843810 25.926140 4.5637350
247 24.906100 11.667400 14.263600 2.9164200 2.2362360 2.1281960
248 26.254200 22.458100 14.177900 4.0460630 4.2918290 2.3121430
249 43.732600 29.188900 18.560200 9.5012240 8.4382340 3.8152090
250 58.527300 37.564200 31.170300 17.622780 14.992780 9.1659060
251 85.954500 67.650900 44.333600 46.264440 45.970780 20.826510
252 100.00000 80.156100 49.848800 65.811020 65.985780 27.497590
253 47.852100 46.726200 14.875400 14.755140 17.397620 3.5819950
254 59.891800 47.142700 25.347300 20.580480 20.575950 7.0119230
255 73.135300 66.047900 50.306400 38.149940 40.209240 25.701360
256 25.284300 70.117900 21.578600 19.179150 34.004460 7.1198130
257 32.065400 70.685400 61.029100 26.840080 37.764450 38.112990
258 0.0000000 0.0000000 100.00000 20.165920 8.0004090 101.54890
259 71.974700 0.0000000 100.00000 38.815690 17.620650 102.46860
260 100.00000 100.00000 100.00000 95.413690 100.12300 109.63010
261 12.981000 22.003600 11.971200 2.4483930 3.4031020 1.9327600
262 23.948500 31.133300 17.274300 5.1383840 6.6425690 3.3558100
263 25.497400 38.784300 29.405800 7.8695660 10.472980 8.0304480
264 29.059900 41.309600 41.751200 10.683590 12.765920 15.716470
265 0.0000000 17.123300 0.0000000 0.9894670 1.8698440 0.3600710
266 0.0000000 21.428600 0.0000000 1.4453710 2.7897790 0.4437940
267 20.672500 23.981500 0.0000000 3.1191150 4.0767250 0.5208640
268 34.270100 32.289600 11.131700 6.9393590 7.9743560 1.9727970
269 39.381200 68.881000 13.856000 21.088450 34.037590 4.9352590
270 53.372300 73.964500 34.573700 30.110560 42.541140 13.469730
271 0.0000000 16.234000 37.808700 3.1706540 2.6699870 11.648280
272 16.770700 25.064200 40.787000 5.6917860 5.4452720 14.402380
273 17.947500 46.738300 39.349500 10.418560 14.992050 14.306130
274 16.666000 46.564500 47.319500 11.618980 15.483040 21.201770
275 41.018300 53.232700 60.242100 21.326280 23.558180 35.790950
276 41.611600 53.316700 76.598200 25.870140 25.438310 57.859590
277 47.188500 65.539100 86.050800 36.074290 37.831660 76.004430
278 29.134600 61.776400 75.254800 25.774630 30.608240 55.851240
279 46.357500 69.042800 76.866700 34.225320 39.849170 59.819240
280 87.787800 56.679400 10.280600 39.712240 35.373780 3.6778250
281 100.00000 57.033600 25.822600 50.588980 40.988210 8.4892210
282 100.00000 62.747600 45.942600 55.848580 47.377130 22.048170
283 78.874300 53.743000 33.988100 33.895660 30.748170 11.876770
284 89.650700 63.615700 52.647100 49.034220 44.295360 28.063430
285 0.0000000 50.000000 0.0000000 7.5434980 14.989450 1.5552710
286 0.0000000 57.692300 0.0000000 10.251950 20.409270 2.0441450
287 41.376700 77.053300 0.0000000 25.321900 42.135350 3.8576390
288 39.659600 100.00000 55.203600 46.387390 76.543890 34.704780
289 65.857000 100.00000 74.038700 61.864880 83.946650 58.930580
290 0.0000000 26.119400 0.0000000 2.0088950 3.9190650 0.5465550
291 16.632700 26.533500 32.928700 4.8304390 5.3734150 9.4361750
292 0.0000000 0.0000000 0.0000000 0.1015190 0.0990137 0.2015290
293 17.599500 0.0000000 14.965300 1.5259350 0.7881190 2.2346250
294 23.668000 0.0000000 33.052800 3.5470290 1.6718000 9.1202830
295 27.588000 31.789400 78.282200 17.053160 11.835220 59.880500
296 32.077800 41.440700 100.00000 28.811870 20.386210 103.04570
297 31.815900 58.808600 100.00000 34.580060 32.088390 104.10390
298 82.025500 50.811100 100.00000 53.309650 37.241620 104.15880
299 100.00000 62.449300 100.00000 72.365070 53.928700 105.55630
300 95.528500 95.528500 95.528500 86.640600 91.292870 99.217480
301 54.963300 49.452200 0.0000000 17.793280 20.085830 1.7165200
302 71.731600 59.113000 19.621600 30.486330 32.191100 6.0059880
303 95.643200 19.358300 12.020100 36.759800 20.699060 2.5970210
304 100.00000 0.0000000 0.0000000 39.360140 20.384240 0.9528110
305 100.00000 0.0000000 20.126700 40.050470 20.658610 4.4988770
306 100.00000 26.109100 33.356600 43.322400 25.155550 10.874780
307 100.00000 49.257900 47.168200 51.009770 37.149180 22.253270
308 2.9412000 0.0000000 0.0000000 0.1682730 0.1332210 0.2026810
309 6.0976000 0.0000000 0.0000000 0.2718860 0.1877240 0.2047650
310 12.356600 32.712300 59.100500 10.138620 9.1367510 32.872010
311 18.940200 44.093500 64.928900 14.969270 15.447840 41.069190
312 17.009600 86.554700 70.740100 36.562910 56.591160 52.221330
313 36.256000 100.00000 72.772000 50.172880 77.978000 57.280420
314 43.676900 100.00000 0.0000000 42.154320 74.593240 6.8137070
315 75.131500 100.00000 0.0000000 56.362690 81.986760 7.0694620
316 26.881800 39.217800 0.0000000 6.7118760 9.9808640 1.0329390
317 53.566100 42.624700 43.278200 18.580670 17.300210 17.457880
318 43.103500 0.0000000 0.0000000 6.0728750 3.1841480 0.3109710
319 57.692300 0.0000000 0.0000000 11.448930 5.9632900 0.4064820
320 50.000000 0.0000000 0.0000000 8.4065340 4.3909600 0.3533900
321 53.860800 0.0000000 0.0000000 9.7036630 5.0610640 0.3768920
322 55.664600 0.0000000 21.679900 11.216900 5.7481800 4.3869720
323 60.861300 0.0000000 39.072900 15.461500 7.7238390 13.540610
324 86.036200 0.0000000 57.211300 33.626070 16.700770 31.206920
325 100.00000 0.0000000 77.461800 50.898350 24.970800 59.364010
326 100.00000 0.0000000 100.00000 59.615710 28.351230 103.32980
327 100.00000 34.957800 100.00000 63.221100 35.630970 103.96080
328 43.971400 20.904100 0.0000000 7.7457590 5.9151770 0.5442860
329 55.869300 24.471100 14.248700 12.754180 9.1705520 2.5393700
330 57.617400 34.409500 40.118600 17.867220 14.053780 14.751500
331 35.769000 13.975300 38.717900 7.3508490 4.5656360 13.083900
332 43.095900 22.630100 54.363500 13.135030 8.5175640 27.602740
333 83.216200 25.276000 56.227600 33.333080 19.396010 29.788610
334 91.014800 41.596200 68.402500 45.761540 30.414190 46.188350
335 80.568700 0.0000000 37.808600 26.099010 13.245090 12.586880
336 100.00000 0.0000000 38.825900 41.964640 21.416960 14.110910
337 76.087000 0.0000000 0.0000000 20.845530 10.817200 0.5781260
338 83.845600 24.669800 0.0000000 28.032590 17.112830 0.9995660
339 100.00000 58.398400 0.0000000 49.895980 41.451250 2.8662000
340 100.00000 79.307300 0.0000000 60.729150 62.595220 4.7794020
341 41.201300 37.347300 26.350400 10.755580 11.353000 6.6855210
342 45.231900 37.202800 51.933900 15.547620 13.454800 25.192910
343 60.861600 45.212100 54.737500 24.792930 21.347670 29.156590
344 68.055700 75.588400 62.879400 43.495080 50.244690 41.102610
345 0.0000000 73.367600 28.468600 19.276220 36.454440 9.8056350
346 0.0000000 74.086800 48.878000 22.527210 38.474000 24.054690
347 0.0000000 100.00000 50.433000 40.294810 73.374360 28.856980
348 66.981400 100.00000 50.585200 56.719590 81.909940 30.018560
349 85.450400 100.00000 66.406100 71.664070 89.135480 48.891780
350 87.209300 0.0000000 0.0000000 28.697170 14.876670 0.7253490
351 86.805100 15.164900 20.821300 30.094380 16.626520 4.6313120
352 87.123600 36.323500 51.581700 37.663730 24.727930 25.929330
353 90.736100 55.498500 80.656700 54.012160 41.149140 66.784130
354 67.111200 59.682000 68.676100 36.591870 34.867830 47.322260
355 68.056000 62.348800 84.117400 43.336430 39.643040 72.742480
356 68.423300 74.441600 88.163300 51.002350 52.367000 81.203110
357 79.934700 60.990800 0.0000000 35.349600 35.745940 2.7728340
358 88.554500 61.458300 28.035500 43.522830 40.440050 9.5385410
359 88.856700 63.872200 72.945900 53.962410 46.622690 54.214770
360 88.759300 68.219800 86.639600 60.402280 52.404880 78.312980
361 13.360500 69.993700 88.376400 32.280390 39.058890 80.100500
362 11.266500 84.411300 90.889800 41.471510 56.056000 87.292700
363 28.156700 89.002100 100.00000 50.539400 65.033550 107.25230
364 0.0000000 23.847800 57.268000 7.6405810 5.8475810 29.878540
365 27.674400 27.564300 57.525400 10.695660 8.1092330 31.172460
366 51.445300 72.596100 57.676200 32.885950 42.706540 34.307660
367 24.347700 53.997200 14.054300 11.481320 19.488840 3.7020580
368 51.924300 57.393300 12.828600 19.822150 25.353130 3.8169790
369 69.900400 73.122000 24.024400 36.418990 45.319480 8.6951580
370 100.00000 77.907000 28.322400 61.244670 62.122200 11.358380
371 30.473900 0.0000000 54.965000 8.2661460 3.6715210 27.656620
372 49.536100 13.965600 63.306400 16.379700 8.6610940 37.972240
373 68.261400 24.485500 69.147400 27.636860 15.893590 46.324060
374 48.188000 0.0000000 48.685500 11.865610 5.6792340 21.580530
375 63.491700 16.484700 51.846600 20.011120 11.073990 24.878660
376 72.662000 37.802900 65.428600 31.387640 21.421910 42.203770
377 46.626600 28.367400 71.697600 19.318010 12.311780 49.861850
378 53.272900 52.290900 82.950400 31.916460 27.627490 70.250650
379 58.882000 55.957700 100.00000 42.598920 34.661020 104.35840
380 26.293700 97.206100 86.506100 50.799000 74.649130 80.685690
381 43.787200 100.00000 100.00000 62.723460 83.182490 108.85930
382 0.0000000 0.0000000 0.0000000 0.1010790 0.0990031 0.2020150
383 13.981900 30.371200 26.753500 4.6113390 6.1997750 6.4503370
384 88.481100 84.071500 63.502100 61.767440 66.999780 43.045070
385 88.912600 83.893300 75.211900 65.316340 68.448330 59.189060
386 28.764600 11.837600 25.627300 4.1473740 2.7982030 5.6339890
387 37.514300 19.436700 27.183000 6.9408340 5.2155400 6.4849570
388 39.273400 29.129900 27.308000 8.7063930 7.9751200 6.9216250
389 39.961900 29.381200 38.257800 10.264500 8.7572870 13.130730
390 71.677900 68.185800 37.825700 36.362660 41.256040 15.237750
391 89.745100 81.431200 42.321600 56.897450 62.931910 20.594510
392 100.00000 83.817700 69.239200 72.703040 72.557720 51.399470
393 0.0000000 43.103500 0.0000000 5.4301470 10.755110 1.1682570
394 0.0000000 43.931800 72.473500 15.601420 15.590000 50.252310
395 19.677100 45.685400 82.291600 20.816290 18.665590 67.609570
396 25.385400 59.561400 87.191300 28.480400 30.050580 77.412590
397 42.942000 77.385500 91.712500 43.322820 50.608190 88.130840
398 0.0000000 6.0976000 0.0000000 0.2781150 0.4537350 0.2343820
399 0.0000000 9.4937000 0.0000000 0.4167010 0.7272760 0.2592800
400 33.445300 15.669800 10.068100 4.5442980 3.5380700 1.4954870
401 48.004500 25.438900 25.807200 10.731740 8.3181760 6.2036000
402 63.767300 31.081400 46.706400 21.142430 14.572740 20.098450
403 77.787300 83.759700 53.370200 51.561840 62.011680 30.703060
404 80.433700 90.349500 70.968600 62.035230 73.325760 53.724270
405 100.00000 100.00000 71.706100 85.162600 96.028760 57.309040
406 21.428600 0.0000000 0.0000000 1.5232830 0.8343290 0.2281150
407 26.119400 0.0000000 0.0000000 2.1366190 1.1512460 0.2366990
408 39.605800 0.0000000 28.779400 6.3423400 3.1664830 6.9137020
409 49.109000 15.307200 36.199900 11.059590 6.6300750 11.393480
410 51.304700 27.101000 48.146500 15.324160 10.625570 21.609600
411 51.447600 71.026600 68.989600 34.927090 42.114760 48.821070
412 60.554300 73.875100 100.00000 51.628300 51.523690 105.92710
413 86.487600 88.643900 100.00000 76.440320 77.928150 107.99380
414 0.0000000 15.934900 24.090500 1.8553390 2.1360740 5.0076710
415 0.0000000 33.812700 48.849000 7.5346630 8.4488420 21.349510
416 0.0000000 33.762500 80.816400 15.990840 11.879020 63.811910
417 73.861300 53.124100 85.472600 43.268460 33.853960 75.320230
END_DATA
CAL    

DESCRIPTOR "Argyll Device Calibration State"
ORIGINATOR "Argyll dispread"
CREATED "Thu Dec 06 13:30:38 2018"
DEVICE_CLASS "DISPLAY"
COLOR_REP "RGB"

BEGIN_ARGYLL_DISPCAL_ARGS
-v2 -ql -m -w0.3127,0.329 -gs -f1.0 -k0 -A4.0 -d2 -c1 -yn -P0.474907749077,0.297087378641,1.49668874172
END_ARGYLL_DISPCAL_ARGS


NUMBER_OF_FIELDS 4
BEGIN_DATA_FORMAT
RGB_I RGB_R RGB_G RGB_B
END_DATA_FORMAT

NUMBER_OF_SETS 256
BEGIN_DATA
0.00000000 0.00000000 0.00000000 0.00000000
0.00392157 0.00737464 0.00669101 0.00675559
0.00784314 0.01446610 0.01313870 0.01327960
0.01176470 0.02129040 0.01935620 0.01958370
0.01568630 0.02786230 0.02535560 0.02567880
0.01960780 0.03419520 0.03114810 0.03157350
0.02352940 0.04024620 0.03672190 0.03721310
0.02745100 0.04593890 0.04202410 0.04253370
0.03137250 0.05126490 0.04704850 0.04750470
0.03529410 0.05626120 0.05179860 0.05212820
0.03921570 0.06098250 0.05629130 0.05644020
0.04313730 0.06546750 0.06054550 0.06047400
0.04705880 0.06974950 0.06458430 0.06427000
0.05098040 0.07387800 0.06844330 0.06787470
0.05490200 0.07789470 0.07216100 0.07131940
0.05882350 0.08181970 0.07576210 0.07463080
0.06274510 0.08566670 0.07926460 0.07782910
0.06666670 0.08946010 0.08267760 0.08093200
0.07058820 0.09322160 0.08600850 0.08396130
0.07450980 0.09696560 0.08927470 0.08693500
0.07843140 0.10070100 0.09248780 0.08986700
0.08235290 0.10444000 0.09565680 0.09278130
0.08627450 0.10816600 0.09879490 0.09567260
0.09019610 0.11186000 0.10189500 0.09853620
0.09411760 0.11551400 0.10495500 0.10139900
0.09803920 0.11911800 0.10799400 0.10426200
0.10196100 0.12266300 0.11101700 0.10712200
0.10588200 0.12616600 0.11401900 0.10998100
0.10980400 0.12962900 0.11700300 0.11285000
0.11372500 0.13304600 0.11998700 0.11572400
0.11764700 0.13641800 0.12296900 0.11860100
0.12156900 0.13975100 0.12595000 0.12147700
0.12549000 0.14307400 0.12892900 0.12436500
0.12941200 0.14640100 0.13191200 0.12729900
0.13333300 0.14973000 0.13492300 0.13028400
0.13725500 0.15307000 0.13796600 0.13331200
0.14117600 0.15642500 0.14103500 0.13638700
0.14509800 0.15980400 0.14413300 0.13950600
0.14902000 0.16322000 0.14726000 0.14266600
0.15294100 0.16668400 0.15041500 0.14587300
0.15686300 0.17019400 0.15360200 0.14913300
0.16078400 0.17374200 0.15683600 0.15244300
0.16470600 0.17732700 0.16011800 0.15579500
0.16862700 0.18095300 0.16343900 0.15918300
0.17254900 0.18460700 0.16679400 0.16260900
0.17647100 0.18826800 0.17017900 0.16606600
0.18039200 0.19193500 0.17359200 0.16953600
0.18431400 0.19560800 0.17702200 0.17301900
0.18823500 0.19929000 0.18045600 0.17653700
0.19215700 0.20298200 0.18390200 0.18009400
0.19607800 0.20667300 0.18737200 0.18368400
0.20000000 0.21036600 0.19086800 0.18729300
0.20392200 0.21405100 0.19438800 0.19093000
0.20784300 0.21773400 0.19792500 0.19459400
0.21176500 0.22142000 0.20148700 0.19828900
0.21568600 0.22510600 0.20507600 0.20200900
0.21960800 0.22878800 0.20870400 0.20572400
0.22352900 0.23246800 0.21237300 0.20941900
0.22745100 0.23614800 0.21606900 0.21309800
0.23137300 0.23981300 0.21977400 0.21674900
0.23529400 0.24345700 0.22349800 0.22035500
0.23921600 0.24707300 0.22723500 0.22391600
0.24313700 0.25067900 0.23097600 0.22745400
0.24705900 0.25428200 0.23471400 0.23096400
0.25098000 0.25786200 0.23845900 0.23442900
0.25490200 0.26141700 0.24220200 0.23785000
0.25882400 0.26494900 0.24591400 0.24123500
0.26274500 0.26847200 0.24959000 0.24459000
0.26666700 0.27198900 0.25323000 0.24793600
0.27058800 0.27550500 0.25684100 0.25129500
0.27451000 0.27903900 0.26042500 0.25467100
0.27843100 0.28260200 0.26400300 0.25806400
0.28235300 0.28619700 0.26758800 0.26147400
0.28627500 0.28981700 0.27117500 0.26486400
0.29019600 0.29343900 0.27476700 0.26823300
0.29411800 0.29705800 0.27834600 0.27161300
0.29803900 0.30069000 0.28189700 0.27501100
0.30196100 0.30434800 0.28542700 0.27841800
0.30588200 0.30802400 0.28895200 0.28181600
0.30980400 0.31172300 0.29247300 0.28519900
0.31372500 0.31544000 0.29598400 0.28856300
0.31764700 0.31917000 0.29947600 0.29190600
0.32156900 0.32290500 0.30294600 0.29522600
0.32549000 0.32663300 0.30639500 0.29852600
0.32941200 0.33035500 0.30981800 0.30183800
0.33333300 0.33408000 0.31321700 0.30515500
0.33725500 0.33781000 0.31660000 0.30847500
0.34117600 0.34153000 0.32000000 0.31180500
0.34509800 0.34524000 0.32340800 0.31515700
0.34902000 0.34894500 0.32681800 0.31852800
0.35294100 0.35264900 0.33023500 0.32191700
0.35686300 0.35635200 0.33366600 0.32532900
0.36078400 0.36006000 0.33710800 0.32875800
0.36470600 0.36379000 0.34056200 0.33218400
0.36862700 0.36752500 0.34404100 0.33561500
0.37254900 0.37125200 0.34753800 0.33906800
0.37647100 0.37498400 0.35103600 0.34253400
0.38039200 0.37873300 0.35453600 0.34601000
0.38431400 0.38249200 0.35806400 0.34951500
0.38823500 0.38625700 0.36161900 0.35304900
0.39215700 0.39003700 0.36519500 0.35660100
0.39607800 0.39383500 0.36880400 0.36017000
0.40000000 0.39763500 0.37244900 0.36373300
0.40392200 0.40143300 0.37612600 0.36727700
0.40784300 0.40520700 0.37983000 0.37079100
0.41176500 0.40893600 0.38355100 0.37428600
0.41568600 0.41261600 0.38726600 0.37778500
0.41960800 0.41625600 0.39097000 0.38128900
0.42352900 0.41988100 0.39466100 0.38480300
0.42745100 0.42349700 0.39835400 0.38835100
0.43137300 0.42709000 0.40205200 0.39192900
0.43529400 0.43066900 0.40575400 0.39553800
0.43921600 0.43425600 0.40947600 0.39917600
0.44313700 0.43784400 0.41321500 0.40283100
0.44705900 0.44144100 0.41696300 0.40645200
0.45098000 0.44504800 0.42072400 0.41003700
0.45490200 0.44866700 0.42449500 0.41360800
0.45882400 0.45228400 0.42825000 0.41715700
0.46274500 0.45590400 0.43196700 0.42067700
0.46666700 0.45954100 0.43566400 0.42417500
0.47058800 0.46319300 0.43934800 0.42765400
0.47451000 0.46686100 0.44301200 0.43112200
0.47843100 0.47055200 0.44666200 0.43458000
0.48235300 0.47426800 0.45030100 0.43803800
0.48627500 0.47801500 0.45393400 0.44149700
0.49019600 0.48179200 0.45756300 0.44495700
0.49411800 0.48559300 0.46119200 0.44842300
0.49803900 0.48942200 0.46482600 0.45190900
0.50196100 0.49328000 0.46846600 0.45539500
0.50588200 0.49717500 0.47211200 0.45888300
0.50980400 0.50111800 0.47578000 0.46237200
0.51372500 0.50509100 0.47947600 0.46585900
0.51764700 0.50909300 0.48317500 0.46933500
0.52156900 0.51312300 0.48687800 0.47280000
0.52549000 0.51718100 0.49058500 0.47624400
0.52941200 0.52126300 0.49429000 0.47967000
0.53333300 0.52537900 0.49799000 0.48308500
0.53725500 0.52952600 0.50168100 0.48649900
0.54117600 0.53370200 0.50536100 0.48991000
0.54509800 0.53791600 0.50903100 0.49330400
0.54902000 0.54216600 0.51269800 0.49667500
0.55294100 0.54644500 0.51636900 0.50005600
0.55686300 0.55072600 0.52003900 0.50346700
0.56078400 0.55501200 0.52369300 0.50691100
0.56470600 0.55930900 0.52734000 0.51038100
0.56862700 0.56360900 0.53101300 0.51385700
0.57254900 0.56791000 0.53472000 0.51731600
0.57647100 0.57218900 0.53846500 0.52075400
0.58039200 0.57643000 0.54223900 0.52417500
0.58431400 0.58060400 0.54602500 0.52758700
0.58823500 0.58472300 0.54980200 0.53097900
0.59215700 0.58880800 0.55356800 0.53434800
0.59607800 0.59284900 0.55732500 0.53769900
0.60000000 0.59684900 0.56106600 0.54103000
0.60392200 0.60081400 0.56478600 0.54433900
0.60784300 0.60474300 0.56848900 0.54762600
0.61176500 0.60863200 0.57218500 0.55089600
0.61568600 0.61248000 0.57587400 0.55414900
0.61960800 0.61629500 0.57955200 0.55737500
0.62352900 0.62008900 0.58321800 0.56058100
0.62745100 0.62386800 0.58686800 0.56378000
0.63137300 0.62764000 0.59049800 0.56696800
0.63529400 0.63141300 0.59411900 0.57013600
0.63921600 0.63517000 0.59775400 0.57328900
0.64313700 0.63890700 0.60140000 0.57644600
0.64705900 0.64263600 0.60504800 0.57961100
0.65098000 0.64637000 0.60871200 0.58279000
0.65490200 0.65012300 0.61240500 0.58597700
0.65882400 0.65389900 0.61614000 0.58915700
0.66274500 0.65767800 0.61991900 0.59231600
0.66666700 0.66144700 0.62373200 0.59545100
0.67058800 0.66520700 0.62756400 0.59856700
0.67451000 0.66895900 0.63141300 0.60165900
0.67843100 0.67268800 0.63527500 0.60471400
0.68235300 0.67638700 0.63911200 0.60773400
0.68627500 0.68004900 0.64291700 0.61071900
0.69019600 0.68366800 0.64668800 0.61366300
0.69411800 0.68725300 0.65041800 0.61656400
0.69803900 0.69081500 0.65410900 0.61942700
0.70196100 0.69436700 0.65777000 0.62226500
0.70588200 0.69792200 0.66142400 0.62509000
0.70980400 0.70149300 0.66508100 0.62791300
0.71372500 0.70508500 0.66875500 0.63075200
0.71764700 0.70868800 0.67244300 0.63360500
0.72156900 0.71229000 0.67613900 0.63646900
0.72549000 0.71591300 0.67985400 0.63933800
0.72941200 0.71956700 0.68359700 0.64221900
0.73333300 0.72325200 0.68736900 0.64512800
0.73725500 0.72696600 0.69115800 0.64806700
0.74117600 0.73068900 0.69494300 0.65103700
0.74509800 0.73440500 0.69871900 0.65402200
0.74902000 0.73812300 0.70249600 0.65701200
0.75294100 0.74183200 0.70627300 0.66000700
0.75686300 0.74553200 0.71005500 0.66301200
0.76078400 0.74923000 0.71384300 0.66602100
0.76470600 0.75293200 0.71761700 0.66903700
0.76862700 0.75663600 0.72137000 0.67207600
0.77254900 0.76034500 0.72511300 0.67514200
0.77647100 0.76407100 0.72885100 0.67822200
0.78039200 0.76781800 0.73257700 0.68131800
0.78431400 0.77158400 0.73628200 0.68444100
0.78823500 0.77537400 0.73997100 0.68760100
0.79215700 0.77919000 0.74367200 0.69079500
0.79607800 0.78302500 0.74739400 0.69401400
0.80000000 0.78689000 0.75115200 0.69725400
0.80392200 0.79081100 0.75494300 0.70053900
0.80784300 0.79479300 0.75875600 0.70388500
0.81176500 0.79882000 0.76257700 0.70730400
0.81568600 0.80286900 0.76638400 0.71080600
0.81960800 0.80691400 0.77017000 0.71437500
0.82352900 0.81094700 0.77393000 0.71799000
0.82745100 0.81496500 0.77767300 0.72163900
0.83137300 0.81898300 0.78142100 0.72531300
0.83529400 0.82302100 0.78517500 0.72900100
0.83921600 0.82706400 0.78893700 0.73269500
0.84313700 0.83110800 0.79272200 0.73642000
0.84705900 0.83515500 0.79653200 0.74019600
0.85098000 0.83921300 0.80036400 0.74402100
0.85490200 0.84328200 0.80421800 0.74790800
0.85882400 0.84735400 0.80810500 0.75185300
0.86274500 0.85143800 0.81202300 0.75585000
0.86666700 0.85553000 0.81595700 0.75989700
0.87058800 0.85962600 0.81988200 0.76400700
0.87451000 0.86369400 0.82378200 0.76816900
0.87843100 0.86772100 0.82766900 0.77234500
0.88235300 0.87172700 0.83155600 0.77650900
0.88627500 0.87572300 0.83546500 0.78064800
0.89019600 0.87971900 0.83940100 0.78478000
0.89411800 0.88371900 0.84336200 0.78892600
0.89803900 0.88772300 0.84732700 0.79309100
0.90196100 0.89172400 0.85127800 0.79727600
0.90588200 0.89571200 0.85522600 0.80143800
0.90980400 0.89969900 0.85919400 0.80556100
0.91372500 0.90370400 0.86318000 0.80968500
0.91764700 0.90773400 0.86716500 0.81384000
0.92156900 0.91177600 0.87113900 0.81800000
0.92549000 0.91580800 0.87510500 0.82214000
0.92941200 0.91983900 0.87906200 0.82627000
0.93333300 0.92388900 0.88300100 0.83038600
0.93725500 0.92796700 0.88692900 0.83447500
0.94117600 0.93208600 0.89084500 0.83852900
0.94509800 0.93624900 0.89475500 0.84254800
0.94902000 0.94046700 0.89865800 0.84653600
0.95294100 0.94473900 0.90255000 0.85049000
0.95686300 0.94906200 0.90643100 0.85440600
0.96078400 0.95343000 0.91030300 0.85828700
0.96470600 0.95784800 0.91416800 0.86214000
0.96862700 0.96231400 0.91802500 0.86596700
0.97254900 0.96681100 0.92187800 0.86978000
0.97647100 0.97132700 0.92572300 0.87357900
0.98039200 0.97585800 0.92956000 0.87736300
0.98431400 0.98040400 0.93339100 0.88113300
0.98823500 0.98496500 0.93721400 0.88488900
0.99215700 0.98954200 0.94103000 0.88863200
0.99607800 0.99413400 0.94483800 0.89236000
1.00000000 0.99874100 0.94864000 0.89607500
END_DATA
