CTI3   

DESCRIPTOR "Argyll Calibration Target chart information 3"
ORIGINATOR "Argyll dispread"
CREATED "Mon Apr  1 15:28:32 2019"
DEVICE_CLASS "DISPLAY"
SINGLE_DIM_STEPS "17"
COMP_GREY_STEPS "49"
DARK_REGION_EMPHASIS "1.6"
COLOR_REP "RGB_XYZ"
TARGET_INSTRUMENT "X-Rite i1 DisplayPro, ColorMunki Display"
DISPLAY_TYPE_REFRESH "NO"
DISPLAY_TYPE_BASE_ID "1"
INSTRUMENT_TYPE_SPECTRAL "NO"
LUMINANCE_XYZ_CDM2 "65.649215 68.913188 76.077257"
NORMALIZED_TO_Y_100 "YES"
VIDEO_LUT_CALIBRATION_POSSIBLE "YES"

BEGIN_ARGYLL_COLPROF_ARGS
-v -qh -aX -bn -C "No copyright. Created with DisplayCAL 3.7.2.0 and ArgyllCMS 2.0.1" -M "KOIOS K2418U"
END_ARGYLL_COLPROF_ARGS

OBSERVER "1931_2"
USE_BLACK_POINT_COMPENSATION "NO"
BLACK_POINT_CORRECTION "0.0"
HIRES_B2A "YES"
HIRES_B2A_SIZE "-1"
SMOOTH_B2A "YES"
PATCH_SEQUENCE "OPTIMIZE_DISPLAY_RESPONSE_DELAY"

NUMBER_OF_FIELDS 7
BEGIN_DATA_FORMAT
SAMPLE_ID RGB_R RGB_G RGB_B XYZ_X XYZ_Y XYZ_Z
END_DATA_FORMAT

NUMBER_OF_SETS 417
BEGIN_DATA
1 100.0000 100.0000 100.0000 95.26365 100.0000 110.3958
2 1.960800 1.960800 1.960800 0.218438 0.228681 0.301018
3 3.921600 3.921600 3.921600 0.367396 0.389486 0.472156
4 5.882400 5.882400 5.882400 0.546107 0.582478 0.675461
5 9.803900 9.803900 9.803900 1.046031 1.113850 1.273235
6 13.72600 13.72600 13.72600 1.689734 1.800122 2.043652
7 17.64700 17.64700 17.64700 2.549079 2.710035 3.042052
8 21.56900 21.56900 21.56900 3.627876 3.840730 4.291750
9 25.49000 25.49000 25.49000 5.003672 5.292014 5.832942
10 29.41200 29.41200 29.41200 6.715490 7.070607 7.757986
11 33.33300 33.33300 33.33300 8.676156 9.127318 10.00386
12 37.25500 37.25500 37.25500 10.90340 11.49081 12.56190
13 41.17600 41.17600 41.17600 13.40085 14.17372 15.43951
14 45.09800 45.09800 45.09800 16.23898 17.18605 18.75185
15 49.02000 49.02000 49.02000 19.41972 20.57849 22.36156
16 52.94100 52.94100 52.94100 22.83804 24.15473 26.41832
17 56.86300 56.86300 56.86300 26.68415 28.21607 31.00271
18 60.78400 60.78400 60.78400 31.05035 32.79728 35.85305
19 64.70600 64.70600 64.70600 35.66315 37.64564 40.82186
20 68.62700 68.62700 68.62700 40.86199 43.09336 46.86133
21 72.54900 72.54900 72.54900 46.19517 48.69751 52.70602
22 76.47100 76.47100 76.47100 51.62507 54.41187 58.79072
23 80.39200 80.39200 80.39200 57.64876 60.72584 65.98264
24 84.31400 84.31400 84.31400 64.51275 67.84449 74.00346
25 88.23500 88.23500 88.23500 71.85331 75.55897 82.57915
26 92.15700 92.15700 92.15700 79.47442 83.69378 90.60547
27 96.07800 96.07800 96.07800 87.04950 91.72003 98.63066
28 10.41500 22.52720 16.26740 2.311415 3.214226 2.738243
29 17.50990 32.09610 30.16130 5.382429 6.893540 8.304938
30 39.94160 41.85720 100.0000 32.25884 21.90344 108.1167
31 42.56850 57.71080 100.0000 38.01265 32.39637 109.0323
32 0.000000 65.81390 73.84550 22.37383 29.41014 55.44505
33 0.000000 77.47410 74.39310 27.87197 40.52605 57.75395
34 22.46820 81.90560 85.25460 36.52741 48.74296 77.33972
35 100.0000 33.21020 0.000000 39.76596 25.78400 1.016430
36 100.0000 54.80160 0.000000 45.59894 37.30763 2.046204
37 100.0000 74.22060 0.000000 53.58904 53.71123 3.523679
38 100.0000 82.17290 27.32990 60.58127 64.54844 9.885526
39 100.0000 81.70360 55.00440 65.67566 66.80743 30.19159
40 26.11940 0.000000 0.000000 2.029318 1.105051 0.199956
41 28.70550 0.000000 0.000000 2.412868 1.301421 0.203055
42 31.25000 0.000000 0.000000 2.896538 1.549119 0.205467
43 36.88520 0.000000 0.000000 3.979830 2.102964 0.210994
44 43.10350 0.000000 0.000000 5.424880 2.840958 0.216542
45 46.82770 0.000000 0.000000 6.394690 3.336923 0.221209
46 50.00000 0.000000 0.000000 7.513960 3.908747 0.226502
47 57.69230 0.000000 0.000000 10.18895 5.275581 0.239370
48 66.32650 0.000000 0.000000 14.07633 7.261232 0.258118
49 69.99050 0.000000 17.70070 17.01151 8.689423 2.639453
50 87.84740 13.55600 19.43250 28.84645 16.11025 3.261555
51 89.92490 16.71960 37.21730 32.76766 18.41497 11.38516
52 40.15990 0.000000 15.84190 5.344158 2.736063 2.263306
53 42.71240 20.88260 33.84510 9.184954 6.642057 9.787142
54 2.941200 0.000000 0.000000 0.177011 0.153590 0.193171
55 18.48340 20.75260 10.17370 2.532460 3.143822 1.455195
56 30.87080 52.22780 16.24360 10.89153 17.09726 3.793187
57 57.82620 85.49740 21.02710 33.59943 51.46768 7.864031
58 73.16810 86.77140 13.34420 41.96201 57.23414 5.987541
59 78.63980 100.0000 32.33500 56.15533 79.21304 14.40807
60 0.000000 43.10350 0.000000 4.349460 9.026438 1.000316
61 0.000000 50.00000 0.000000 6.005409 12.51700 1.319223
62 0.000000 57.69230 0.000000 8.118329 16.96436 1.721232
63 0.000000 66.32650 0.000000 11.11629 23.40378 2.309248
64 0.000000 76.08700 0.000000 15.46453 32.28126 3.113586
65 0.000000 87.20930 0.000000 20.36591 42.90506 4.083921
66 26.55400 89.85300 21.14800 26.52677 50.48335 8.352002
67 71.84910 100.0000 51.46250 55.85829 79.03101 28.98067
68 51.16700 7.130900 15.28240 8.896617 5.032742 2.203361
69 73.48060 21.22110 22.66040 21.11646 13.19040 4.429278
70 86.72970 36.10800 28.54480 32.55518 23.12044 7.231175
71 100.0000 49.93970 47.53110 50.14746 37.95544 20.38629
72 100.0000 82.18740 73.74040 71.83814 70.69448 54.92435
73 100.0000 100.0000 86.31830 88.74943 97.13715 79.83619
74 100.0000 100.0000 100.0000 95.49747 100.1595 110.6707
75 0.000000 0.000000 36.88520 2.323384 0.814083 12.01268
76 0.000000 0.000000 43.10350 3.172533 1.076583 16.61671
77 0.000000 0.000000 50.00000 4.313999 1.428075 22.77692
78 0.000000 0.000000 57.69230 5.853410 1.902094 31.06766
79 0.000000 0.000000 66.32650 7.847825 2.512998 41.82474
80 0.000000 0.000000 76.08700 10.62609 3.360073 56.84165
81 25.28460 13.14040 84.14440 16.75035 7.321868 71.70646
82 56.00660 40.46890 89.81120 32.69469 22.60567 82.75045
83 67.19510 73.60200 100.0000 55.51093 52.87983 110.2120
84 1.938000 1.938000 1.938000 0.218652 0.228750 0.301360
85 2.941200 2.941200 2.941200 0.273673 0.289029 0.365729
86 3.968300 3.968300 3.968300 0.367382 0.389503 0.472698
87 5.020100 5.020100 5.020100 0.468030 0.497863 0.593098
88 6.097600 6.097600 6.097600 0.590465 0.627958 0.734217
89 7.201600 7.201600 7.201600 0.679723 0.719201 0.834555
90 8.333300 8.333300 8.333300 0.826793 0.880944 1.011054
91 9.493700 9.493700 9.493700 0.985984 1.048783 1.205402
92 10.68380 10.68380 10.68380 1.167021 1.244879 1.408442
93 11.90480 11.90480 11.90480 1.349100 1.434837 1.624723
94 13.15790 13.15790 13.15790 1.619714 1.728454 1.953546
95 14.44440 14.44440 14.44440 1.847448 1.962849 2.222739
96 15.76580 15.76580 15.76580 2.090501 2.221829 2.509458
97 17.12330 17.12330 17.12330 2.443340 2.599677 2.924262
98 18.51850 18.51850 18.51850 2.727412 2.893020 3.257033
99 19.95310 19.95310 19.95310 3.168508 3.362408 3.754371
100 21.42860 21.42860 21.42860 3.617837 3.831148 4.284599
101 22.94690 22.94690 22.94690 4.134122 4.371803 4.876645
102 24.50980 24.50980 24.50980 4.550725 4.816707 5.335666
103 26.11940 26.11940 26.11940 5.309561 5.618044 6.184803
104 27.77780 27.77780 27.77780 5.996029 6.320655 6.956130
105 29.48720 29.48720 29.48720 6.720868 7.076929 7.770331
106 31.25000 31.25000 31.25000 7.640471 8.033632 8.831715
107 33.06880 33.06880 33.06880 8.443054 8.869989 9.738756
108 34.94620 34.94620 34.94620 9.539723 10.03529 10.96936
109 36.88520 36.88520 36.88520 10.65436 11.24556 12.27550
110 38.88890 38.88890 38.88890 11.82735 12.49280 13.62926
111 40.96050 40.96050 40.96050 13.09623 13.84297 15.10940
112 43.10350 43.10350 43.10350 14.76482 15.62651 17.05746
113 45.32160 45.32160 45.32160 16.51504 17.48837 19.08675
114 47.61910 47.61910 47.61910 18.09695 19.13431 20.87081
115 0.000000 0.000000 0.000000 0.120502 0.123583 0.191000
116 0.000000 0.000000 2.941200 0.154850 0.136082 0.360388
117 46.99210 14.39450 43.59420 11.30528 6.629251 16.42094
118 48.20530 13.28330 62.86100 15.74118 8.130982 36.38637
119 32.90100 13.42860 42.87940 7.393060 4.415691 15.90896
120 42.21580 26.54430 69.63460 17.50747 11.15124 46.60827
121 44.66620 41.97840 78.13040 24.04016 19.14871 59.93533
122 53.36030 77.44570 80.95490 41.37049 48.78247 67.06261
123 34.92620 100.0000 67.73570 44.62774 71.61633 49.64361
124 63.55780 100.0000 69.64600 56.38111 78.89863 52.05723
125 14.77600 82.88630 48.64090 24.86302 43.70925 24.98832
126 25.93180 87.51680 68.15290 34.26515 52.90205 48.77924
127 53.96780 87.68160 71.20640 44.23079 59.46907 52.94787
128 57.82980 89.80620 86.38560 52.84642 65.76547 79.85815
129 91.26980 91.26980 91.26980 77.79299 81.93609 88.84894
130 38.52980 13.69510 17.12100 5.817879 4.036639 2.786138
131 68.48010 15.51120 39.23000 19.93116 11.44804 12.87519
132 74.21870 46.55300 43.55600 29.57681 25.36555 17.13671
133 84.14620 68.03220 55.66770 46.27589 45.98791 29.98037
134 92.72860 79.17630 79.36090 65.73465 64.31910 63.09019
135 13.15790 0.000000 0.000000 0.665463 0.405553 0.195141
136 17.12330 0.000000 0.000000 0.954779 0.554645 0.195455
137 31.86920 34.03410 42.60460 9.853958 9.858144 16.44985
138 35.10530 49.10040 59.41770 17.84034 19.28259 34.04858
139 38.88430 65.09770 63.49900 25.39822 31.88028 39.91672
140 84.68680 100.0000 68.85430 69.25370 86.61570 50.60825
141 100.0000 100.0000 70.73670 82.46468 94.20881 52.58800
142 28.31680 15.18240 65.74550 11.54346 5.973517 40.86710
143 46.60850 48.18680 70.54820 24.05748 22.10620 48.73355
144 72.60240 67.03090 83.92160 47.90556 45.34691 71.86890
145 83.33330 83.33330 83.33330 62.22961 65.56623 71.43803
146 87.20930 87.20930 87.20930 69.57458 73.16577 80.27821
147 31.07790 69.63190 77.70660 29.85808 36.90111 61.52352
148 36.94910 71.28880 100.0000 41.99066 43.28939 110.2576
149 0.000000 0.000000 87.20930 14.61010 4.562465 78.31144
150 0.000000 0.000000 100.0000 19.08791 5.916226 102.5340
151 0.000000 25.26240 100.0000 22.12070 10.59166 107.8059
152 39.91730 24.49030 100.0000 28.57213 14.26908 107.4932
153 39.47770 0.000000 100.0000 25.99966 9.300459 107.1733
154 100.0000 0.000000 100.0000 59.24015 26.52438 103.3693
155 0.000000 0.000000 21.42860 0.871650 0.364137 4.190165
156 0.000000 0.000000 26.11940 1.214267 0.470468 6.046727
157 27.39300 0.000000 26.02150 3.485044 1.662390 5.609830
158 50.85120 12.34480 29.86870 10.48586 6.200972 7.442225
159 64.26830 0.000000 27.66470 14.95736 7.512042 6.239247
160 80.74290 3.713500 37.72840 25.58879 13.08413 11.49224
161 100.0000 0.000000 58.25360 43.82206 21.41829 30.04914
162 100.0000 0.000000 75.54610 48.91961 23.15916 53.35073
163 76.17140 0.000000 69.23850 29.63577 13.59973 44.91871
164 82.91580 29.52190 71.41970 37.81466 22.86565 48.17085
165 46.15630 0.000000 32.89680 8.569887 4.139315 9.013994
166 53.28770 0.000000 52.96610 14.25360 6.467507 24.75136
167 65.25690 17.68320 64.38370 23.66939 12.92792 38.16999
168 77.20000 32.17130 84.28770 39.64722 23.94862 70.53255
169 87.03070 47.79130 89.45300 52.69112 36.87862 81.58135
170 14.57990 7.752400 35.76350 3.249824 1.827182 11.08756
171 15.93710 8.704800 51.86250 5.969767 2.859852 24.20930
172 18.04450 41.42550 85.71460 20.95122 16.43930 76.48360
173 23.33900 51.33570 86.47530 24.79956 22.71400 78.46060
174 0.000000 100.0000 63.25800 37.45562 66.32580 43.74829
175 0.000000 100.0000 83.35230 44.30093 69.66126 77.02077
176 0.000000 100.0000 100.0000 51.61426 72.58400 113.3604
177 46.20370 100.0000 100.0000 61.61246 80.01869 113.3325
178 77.79950 100.0000 100.0000 77.78185 89.85629 112.4231
179 41.43450 100.0000 0.000000 35.26115 65.18125 5.883730
180 73.39860 100.0000 0.000000 49.42719 74.08267 6.144380
181 100.0000 100.0000 0.000000 68.91547 85.27574 6.379830
182 19.75450 60.66040 26.60710 12.51984 22.16997 7.941945
183 17.30480 60.20580 41.30210 14.07329 22.73361 16.74335
184 15.96840 61.99790 61.76330 18.84580 26.01297 37.62286
185 18.91900 61.73440 77.25480 23.67868 27.99370 60.36526
186 53.36160 82.88650 100.0000 53.29705 58.53102 111.1681
187 0.000000 33.55980 67.05070 11.26630 9.292206 43.71333
188 0.000000 46.68710 72.84980 15.89559 16.06064 53.13120
189 0.000000 55.97000 100.0000 29.28042 25.89717 109.0567
190 0.000000 42.21980 100.0000 25.47400 17.66836 108.1493
191 0.000000 69.75080 100.0000 34.81261 37.38003 110.2681
192 0.000000 82.19520 100.0000 40.60823 49.62016 111.2125
193 46.49440 61.37820 65.80780 27.01227 30.74363 42.62530
194 46.72700 65.79760 78.98570 32.98636 36.16704 62.84222
195 44.49920 42.53880 55.64690 17.54213 16.59312 29.10515
196 62.99230 52.03320 65.16520 30.30398 27.67736 40.56891
197 76.69820 64.73520 71.53640 44.91219 42.69261 50.41680
198 0.000000 72.06410 30.42660 16.02874 30.72911 11.01902
199 20.28110 81.53130 30.62200 22.11459 41.45799 11.70680
200 49.22900 100.0000 29.50270 40.86466 69.96049 13.12816
201 100.0000 100.0000 29.11490 72.25223 88.43445 12.83128
202 100.0000 100.0000 51.76600 76.81067 91.14893 29.13871
203 58.28400 69.65890 0.000000 24.81147 34.65540 2.877635
204 85.09040 76.64290 44.76390 48.43108 53.35288 20.23046
205 89.62330 18.32650 53.40190 36.16784 20.08913 24.81613
206 100.0000 34.83310 58.64170 49.00905 31.05748 31.40967
207 100.0000 60.88630 65.15740 58.69420 48.17930 40.61799
208 100.0000 60.60750 80.45610 63.99870 50.58610 63.71331
209 100.0000 77.56640 82.57870 72.80440 66.97110 69.64525
210 0.000000 2.941200 0.000000 0.171415 0.228224 0.202062
211 0.000000 6.097600 0.000000 0.265596 0.426687 0.220271
212 0.000000 9.493700 0.000000 0.386224 0.678324 0.243072
213 0.000000 26.11940 0.000000 1.626425 3.288186 0.478542
214 16.29590 30.34340 13.54950 3.637191 5.508830 2.351673
215 32.68800 37.26680 27.80510 8.588717 10.27688 7.201878
216 48.36570 45.43900 27.59310 14.71752 16.66096 7.325176
217 100.0000 0.000000 15.15120 36.50394 18.67707 2.035986
218 100.0000 0.000000 28.62370 38.46052 19.52076 6.354863
219 76.08700 0.000000 0.000000 19.41443 9.985569 0.283717
220 75.44400 26.43350 0.000000 21.26030 14.16218 0.672685
221 87.20930 0.000000 0.000000 25.83176 13.27335 0.316354
222 86.92410 21.61820 8.996600 28.37902 17.11524 1.283696
223 100.0000 30.49190 22.09310 41.28934 26.08000 4.378728
224 100.0000 50.25030 27.78840 46.96116 36.50688 7.562607
225 100.0000 66.02300 28.32340 52.80984 48.47280 8.791985
226 100.0000 66.94140 53.87400 58.26565 52.07199 27.60385
227 69.93980 24.52830 12.72080 18.89893 12.69727 1.911904
228 88.44100 42.47570 11.55180 33.61816 25.83026 2.368577
229 90.26830 76.96240 10.78300 47.54999 52.79917 4.637066
230 89.52580 82.70610 62.85630 59.68424 64.37760 39.79842
231 36.80650 28.07980 0.000000 6.160522 6.433312 0.597872
232 44.51300 34.85590 24.57560 10.87776 10.91083 5.694650
233 55.98760 42.82120 39.13240 18.44934 17.65277 13.89516
234 67.81200 50.76740 40.20940 26.59181 25.46058 15.07810
235 90.59200 61.04710 57.06940 48.81564 43.12349 31.21685
236 100.0000 0.000000 0.000000 34.27596 17.59449 0.360328
237 100.0000 0.000000 41.68300 40.23100 20.17014 13.98590
238 100.0000 30.75880 41.02040 44.01568 27.41206 14.38607
239 58.61010 41.32540 18.37980 16.61767 16.13049 3.827048
240 59.52820 59.37430 41.55800 25.55095 29.10020 16.55963
241 78.76410 86.64880 47.09560 50.24072 62.55565 23.35657
242 32.59160 57.05600 0.000000 11.68994 19.32191 1.803076
243 68.00230 63.89700 13.25010 28.13153 33.18970 3.982180
244 76.08700 76.08700 76.08700 51.19735 53.86802 58.44872
245 79.62960 79.62960 79.62960 56.36274 59.47789 64.53105
246 81.82420 87.13050 100.0000 72.01552 73.61319 110.3080
247 17.39730 25.14700 38.22520 5.292374 5.148151 12.89651
248 27.91510 29.41880 50.90640 9.715916 8.264510 23.67672
249 27.95870 36.34790 66.96830 14.99614 12.58254 43.33253
250 7.886400 32.76430 55.13850 8.792090 8.309134 28.89909
251 23.57060 44.41040 63.74120 15.06326 15.49891 39.31433
252 22.00880 73.36450 92.02150 35.29105 41.34569 91.02313
253 33.73080 86.92390 100.0000 49.09415 59.62548 111.8024
254 0.000000 22.39980 22.07180 2.144135 2.981612 4.580374
255 13.21430 24.04620 29.83300 3.756433 4.189070 7.932641
256 51.61170 30.77290 33.46260 13.45115 11.06182 9.742952
257 0.000000 0.000000 0.000000 0.120439 0.123517 0.191362
258 0.000000 19.07310 50.16320 5.407904 3.716901 23.02710
259 0.000000 22.09440 72.29800 10.99230 6.166631 50.95860
260 86.65530 78.56600 88.42570 64.59267 62.52846 81.55455
261 95.52850 95.52850 95.52850 86.19925 90.75745 97.69343
262 100.0000 100.0000 100.0000 95.36796 100.1103 110.6718
263 0.000000 33.12680 22.11360 3.500712 5.852651 4.825488
264 0.000000 40.03060 43.06530 7.296848 9.728402 17.43170
265 15.38710 50.12900 56.38970 13.67363 17.25272 30.76969
266 22.52780 66.71810 56.10600 20.21633 29.82280 31.28660
267 49.78310 73.81150 65.12300 33.09034 42.17603 42.37947
268 26.82670 37.55880 0.000000 5.650620 8.431980 0.859599
269 79.57910 45.81250 0.000000 27.72424 23.64952 1.425024
270 78.36860 60.19010 0.000000 31.41925 32.28570 2.238238
271 0.000000 100.0000 0.000000 28.18171 59.15109 5.566971
272 0.000000 100.0000 27.19520 30.48412 61.91663 12.03603
273 0.000000 100.0000 47.14330 33.63879 64.10200 25.82848
274 30.97940 14.21610 0.000000 3.501092 2.813307 0.318825
275 51.26450 20.26450 0.000000 9.232488 6.648700 0.452504
276 51.26440 49.44470 0.000000 14.67557 17.79547 1.457197
277 50.00000 50.00000 50.00000 20.28262 21.51546 23.46038
278 62.13630 50.79440 54.71380 26.69191 25.34621 28.27771
279 61.78840 70.30460 62.09100 35.90786 41.47076 37.98901
280 72.69500 72.69500 72.69500 46.09872 48.53624 52.64594
281 74.83470 86.58850 79.92610 57.62455 66.13468 66.00249
282 78.41850 100.0000 85.14330 70.77261 86.83642 77.73184
283 0.000000 21.42860 0.000000 1.145521 2.277975 0.386900
284 0.000000 31.45670 44.84070 5.954604 6.497259 18.39255
285 19.25420 38.08340 45.76180 8.934565 10.30874 19.43609
286 87.60290 48.27740 75.83120 47.41982 34.91165 55.15444
287 0.000000 0.000000 0.000000 0.120411 0.123544 0.191289
288 0.957900 0.957900 0.957900 0.145792 0.150737 0.218147
289 74.11110 0.000000 45.87560 22.82588 11.11513 17.76401
290 86.74370 12.24200 62.05870 35.20009 18.23352 34.66451
291 100.0000 34.70710 76.26130 54.19863 33.20420 55.02207
292 18.60760 0.000000 12.89400 1.443532 0.753767 1.731101
293 23.28410 8.728100 12.99240 2.336329 1.716285 1.792376
294 65.79790 51.89380 16.06020 22.78801 23.83904 3.759154
295 83.98570 54.61140 17.52980 34.36363 31.51774 4.309148
296 88.03800 67.04400 21.12930 42.48674 43.38691 6.181930
297 16.45400 10.19980 0.000000 1.254928 1.251229 0.259968
298 27.31810 15.88710 10.67200 3.397168 3.011980 1.431306
299 36.31490 26.57370 40.36350 9.305508 7.704454 14.40431
300 48.88270 37.35410 43.88270 15.44097 13.92284 17.34272
301 85.71290 37.88240 60.56550 38.69432 26.58525 33.65505
302 0.000000 0.000000 0.000000 0.120554 0.123628 0.191519
303 33.02020 20.00150 24.99760 5.782621 4.769808 5.501610
304 38.79680 57.90400 34.59110 16.48662 23.21785 11.83844
305 0.000000 31.25000 0.000000 2.264938 4.634897 0.603638
306 0.000000 36.88520 0.000000 3.127141 6.451639 0.769139
307 48.09360 53.98480 17.32760 16.17557 21.11329 4.185022
308 69.70660 61.08170 34.41290 30.53451 33.15430 11.88684
309 97.14370 68.39410 42.23990 53.76691 50.56530 17.48177
310 57.45980 37.16460 0.000000 14.18011 13.15732 0.942170
311 70.88680 37.48810 15.02400 21.92626 17.82468 2.801487
312 41.28780 18.87010 12.77440 6.672953 5.143378 1.891291
313 53.75290 20.62640 85.84560 26.23177 13.55505 74.42394
314 93.78080 19.64630 85.23060 49.64733 25.86887 71.23920
315 100.0000 37.13090 100.0000 65.39174 38.50068 105.1311
316 13.23050 9.881900 17.83460 1.645756 1.410889 2.962093
317 20.65500 39.68900 28.53360 6.997277 9.998972 7.788347
318 47.94790 50.13500 40.43320 17.71973 20.21097 15.26418
319 57.69230 57.69230 57.69230 27.59088 29.09936 32.03528
320 60.45750 60.45750 60.45750 30.53511 32.33532 35.41438
321 60.31200 5.302600 46.30490 16.20467 8.169705 18.42972
322 66.78230 24.07930 52.01950 22.30068 13.86543 24.10148
323 66.10380 36.28730 63.12790 27.18929 19.65477 37.30303
324 53.05900 36.98840 52.52610 18.51394 15.32161 25.19593
325 71.85520 45.75990 52.21380 29.91891 25.06974 24.87628
326 74.79860 48.42200 63.18910 35.19290 28.69988 37.67495
327 88.66820 52.25940 63.48210 45.61182 36.20354 38.18586
328 68.25000 60.76270 53.62890 33.17225 34.18042 27.62853
329 72.82860 73.86720 56.86740 42.32775 47.70443 32.14093
330 66.18590 74.03750 84.25370 47.75909 50.08393 73.60539
331 67.81050 88.09690 96.45990 61.72653 69.11298 99.91023
332 100.0000 100.0000 100.0000 95.36796 100.1103 110.6718
333 15.45030 42.75250 19.73740 6.252503 10.60007 4.333612
334 32.88280 42.32220 21.16300 9.182652 12.32693 4.773944
335 41.28390 57.54600 46.02970 18.95995 24.33054 20.20352
336 0.000000 51.87110 28.91010 8.325831 14.97619 8.727572
337 0.000000 55.58600 50.44320 12.74534 18.97009 24.90217
338 0.000000 73.61690 52.13240 20.24858 34.08054 28.07156
339 0.220000 81.84180 67.36180 27.87683 44.00490 47.64388
340 29.18840 86.88900 80.14460 38.84365 54.99243 67.48138
341 51.96820 15.92730 9.656400 9.652434 6.363373 1.286750
342 56.69730 32.87090 21.17060 14.44542 12.30370 4.315625
343 41.67240 26.67030 10.94460 7.598380 7.019419 1.703875
344 41.47120 39.84200 12.01720 10.03883 11.94823 2.351711
345 39.55090 100.0000 48.39700 40.82522 69.69074 26.50392
346 44.60620 100.0000 84.35170 53.65553 76.46742 77.26785
347 14.35840 42.96530 40.08800 8.566499 11.92845 14.93768
348 20.71860 50.70360 40.67630 11.38494 16.55754 15.86712
349 52.46910 52.46910 52.46910 22.47424 23.74132 25.98363
350 55.03140 55.03140 55.03140 24.75878 26.08095 28.75356
351 80.61350 63.68370 62.77170 44.04249 41.80747 38.14960
352 90.17260 66.20640 79.35850 57.73287 50.58441 62.43023
353 0.000000 0.000000 6.097600 0.222833 0.158221 0.717125
354 0.000000 0.000000 31.25000 1.702322 0.622306 8.666570
355 28.43530 0.000000 43.67980 5.875572 2.479057 16.51026
356 57.35330 0.000000 77.35190 22.34995 9.412001 57.03982
357 78.49780 15.70750 86.96720 38.78511 19.21912 75.98178
358 72.71500 0.000000 100.0000 39.96244 16.50172 106.5292
359 74.77040 30.46990 100.0000 45.23201 25.13560 106.8695
360 80.61330 67.67640 100.0000 60.90910 51.93577 108.7347
361 100.0000 83.52320 100.0000 84.26600 77.31235 108.2523
362 6.097600 0.000000 0.000000 0.291447 0.212479 0.193054
363 9.493700 0.000000 0.000000 0.434426 0.286764 0.194012
364 21.42860 0.000000 0.000000 1.379813 0.772582 0.196915
365 32.00480 9.083100 23.87720 4.648180 2.906561 4.887942
366 58.60510 29.68970 45.24410 17.79756 13.02159 17.95362
367 72.46090 32.68850 45.26810 25.70542 18.07164 17.81111
368 89.49790 42.28180 48.61620 39.52003 28.97597 21.19258
369 81.06010 78.77710 0.000000 41.26515 50.20660 3.795140
370 81.01890 79.74750 30.28270 44.77174 53.64673 11.01180
371 23.29170 23.25100 58.93810 9.726846 6.575806 32.40968
372 23.24040 29.97930 83.21510 18.06277 11.32727 69.82325
373 32.38750 0.000000 68.68930 12.22815 4.673366 44.75491
374 62.67040 35.14630 74.88040 28.64773 19.55334 54.00939
375 62.16950 56.66090 91.95410 41.24107 34.58495 87.23344
376 63.15110 47.73460 74.47810 31.93070 26.24239 54.00983
377 73.44580 50.51630 100.0000 49.60672 35.42162 107.8027
378 0.000000 12.91240 19.69970 1.247959 1.382196 3.628665
379 0.000000 17.38940 35.73770 3.035035 2.563347 11.40678
380 20.19710 17.71090 37.43090 4.738537 3.628458 12.20845
381 45.71670 28.54010 56.13670 15.28206 11.00426 29.02655
382 54.50670 56.92420 66.40050 28.26996 28.75067 42.75251
383 69.44440 69.44440 69.44440 42.01889 44.22799 48.08549
384 86.40720 83.22480 74.42660 61.42267 65.35283 56.55489
385 41.84650 77.85250 0.000000 22.65404 38.80482 3.482992
386 50.74300 78.05830 33.41240 28.58359 43.10475 12.72968
387 31.29040 67.67870 17.66930 16.73500 29.05012 5.275325
388 57.50160 68.79380 21.54590 25.71693 35.00556 6.497601
389 58.97700 69.78400 39.27050 29.15459 37.81871 15.68973
390 59.04720 76.14340 57.60000 36.18568 45.91631 33.48538
391 40.94450 82.89860 46.40040 29.84155 47.13843 22.59206
392 61.02760 86.98230 54.53240 42.13297 57.92426 30.93450
393 80.01060 89.49390 72.85520 59.99535 70.48240 55.02767
394 63.33330 63.33330 63.33330 33.76353 35.67040 38.90968
395 66.32650 66.32650 66.32650 37.69826 39.76003 43.21738
396 35.13180 50.10590 48.17740 15.56585 18.79762 21.88143
397 38.80580 72.55670 50.27440 25.34935 37.22073 25.27892
398 0.000000 52.13030 66.90910 15.66356 18.49755 44.63785
399 19.94870 58.42570 83.58240 25.16379 26.68525 72.17892
400 47.33190 60.57160 84.39800 33.38989 32.72933 73.25777
401 85.45310 62.79810 86.48890 55.77366 46.83589 77.28911
402 100.0000 62.60010 100.0000 73.96188 55.86867 106.3950
403 0.000000 13.15790 0.000000 0.575135 1.078086 0.278590
404 0.000000 17.12330 0.000000 0.818653 1.590067 0.324731
405 19.78670 21.63700 0.000000 2.365736 3.088187 0.413687
406 31.03920 27.30870 14.00810 5.483871 6.021160 2.344850
407 37.35410 27.34520 24.84250 7.630781 7.185769 5.503401
408 77.71320 26.62250 36.99410 26.04396 16.84466 11.50023
409 79.86220 58.42220 37.97920 35.90015 34.59164 13.78993
410 0.000000 0.000000 9.493700 0.308464 0.186204 1.172732
411 0.000000 0.000000 13.15790 0.443698 0.229594 1.894251
412 0.000000 0.000000 17.12330 0.621490 0.285701 2.846009
413 13.19670 8.185900 24.86890 2.035148 1.409466 5.303733
414 25.37860 16.23620 27.35720 4.200208 3.337444 6.516859
415 56.96290 21.27980 26.55500 13.18727 8.947371 6.043607
416 66.25560 32.73400 29.62590 19.74778 15.06606 7.800806
417 83.05340 48.08150 33.65180 33.82093 28.51191 10.52396
END_DATA
CAL    

DESCRIPTOR "Argyll Device Calibration State"
ORIGINATOR "Argyll dispread"
CREATED "Mon Apr  1 15:28:32 2019"
DEVICE_CLASS "DISPLAY"
COLOR_REP "RGB"

BEGIN_ARGYLL_DISPCAL_ARGS
-v2 -ql -m -w0.3127,0.329 -gs -f1.0 -k0 -A4.0 -d1 -c1 -yn -P0.483057525611,0.461538461538,3.44444444444
END_ARGYLL_DISPCAL_ARGS


NUMBER_OF_FIELDS 4
BEGIN_DATA_FORMAT
RGB_I RGB_R RGB_G RGB_B
END_DATA_FORMAT

NUMBER_OF_SETS 256
BEGIN_DATA
0.00000000 0.00000000 0.00000000 0.00000000
0.00392157 0.00937249 0.00982594 0.01010680
0.00784314 0.01785040 0.01867750 0.01918680
0.01176470 0.02555600 0.02669280 0.02738890
0.01568630 0.03259030 0.03398490 0.03483480
0.01960780 0.03903950 0.04065670 0.04163960
0.02352940 0.04499860 0.04679830 0.04789840
0.02745100 0.05056990 0.05248720 0.05368840
0.03137250 0.05584300 0.05779490 0.05908620
0.03529410 0.06086530 0.06277890 0.06415420
0.03921570 0.06566980 0.06749680 0.06894370
0.04313730 0.07028760 0.07199280 0.07350790
0.04705880 0.07475240 0.07630830 0.07788930
0.05098040 0.07908900 0.08047790 0.08213210
0.05490200 0.08331570 0.08453040 0.08626870
0.05882350 0.08746460 0.08849130 0.09031860
0.06274510 0.09153880 0.09237670 0.09431170
0.06666670 0.09553000 0.09619250 0.09825080
0.07058820 0.09943050 0.09995600 0.10214000
0.07450980 0.10325100 0.10367800 0.10598300
0.07843140 0.10699300 0.10736000 0.10978200
0.08235290 0.11066100 0.11101800 0.11357000
0.08627450 0.11427500 0.11465400 0.11735200
0.09019610 0.11783800 0.11826500 0.12112200
0.09411760 0.12134600 0.12186100 0.12488400
0.09803920 0.12481800 0.12546000 0.12864300
0.10196100 0.12827500 0.12905000 0.13239700
0.10588200 0.13171400 0.13263200 0.13613400
0.10980400 0.13514400 0.13620100 0.13984800
0.11372500 0.13856600 0.13976800 0.14356900
0.11764700 0.14200100 0.14333700 0.14728500
0.12156900 0.14545900 0.14689200 0.15098800
0.12549000 0.14892800 0.15043000 0.15467700
0.12941200 0.15240300 0.15395200 0.15833300
0.13333300 0.15588500 0.15744500 0.16195500
0.13725500 0.15936900 0.16091900 0.16556200
0.14117600 0.16286400 0.16439300 0.16915800
0.14509800 0.16638500 0.16786400 0.17273000
0.14902000 0.16992900 0.17132200 0.17627500
0.15294100 0.17347700 0.17476500 0.17980500
0.15686300 0.17702600 0.17820000 0.18332400
0.16078400 0.18057200 0.18162500 0.18681600
0.16470600 0.18411400 0.18503000 0.19027400
0.16862700 0.18764600 0.18842000 0.19369900
0.17254900 0.19117800 0.19180000 0.19710600
0.17647100 0.19470600 0.19518300 0.20050700
0.18039200 0.19823800 0.19857600 0.20390900
0.18431400 0.20177500 0.20197100 0.20730900
0.18823500 0.20531400 0.20535700 0.21070800
0.19215700 0.20884700 0.20873000 0.21410000
0.19607800 0.21237100 0.21208800 0.21749600
0.20000000 0.21588400 0.21544500 0.22089600
0.20392200 0.21940900 0.21880600 0.22429700
0.20784300 0.22295400 0.22216500 0.22767100
0.21176500 0.22650300 0.22550800 0.23102400
0.21568600 0.23004500 0.22884300 0.23437600
0.21960800 0.23359400 0.23218100 0.23772400
0.22352900 0.23715800 0.23551700 0.24106600
0.22745100 0.24073600 0.23885400 0.24441400
0.23137300 0.24433800 0.24220500 0.24777400
0.23529400 0.24797200 0.24557600 0.25115600
0.23921600 0.25164900 0.24897500 0.25455800
0.24313700 0.25536000 0.25238400 0.25797600
0.24705900 0.25909700 0.25580000 0.26141200
0.25098000 0.26286200 0.25922200 0.26487200
0.25490200 0.26665500 0.26265400 0.26835600
0.25882400 0.27047400 0.26608900 0.27185400
0.26274500 0.27431200 0.26952900 0.27538400
0.26666700 0.27816300 0.27298400 0.27894600
0.27058800 0.28202700 0.27645300 0.28254100
0.27451000 0.28591000 0.27994000 0.28616500
0.27843100 0.28978400 0.28343600 0.28977900
0.28235300 0.29360600 0.28691000 0.29336300
0.28627500 0.29737200 0.29035100 0.29692600
0.29019600 0.30108100 0.29376100 0.30047300
0.29411800 0.30474300 0.29715400 0.30400800
0.29803900 0.30836600 0.30053900 0.30753000
0.30196100 0.31195200 0.30391700 0.31102000
0.30588200 0.31550500 0.30727900 0.31446900
0.30980400 0.31902700 0.31063000 0.31787400
0.31372500 0.32252100 0.31397300 0.32123600
0.31764700 0.32598700 0.31730600 0.32456100
0.32156900 0.32942600 0.32063100 0.32785300
0.32549000 0.33284200 0.32395600 0.33113200
0.32941200 0.33626500 0.32729400 0.33441800
0.33333300 0.33969100 0.33066200 0.33772700
0.33725500 0.34310200 0.33403800 0.34104300
0.34117600 0.34649600 0.33741200 0.34436500
0.34509800 0.34986500 0.34078500 0.34769500
0.34902000 0.35320200 0.34415200 0.35103500
0.35294100 0.35650600 0.34751000 0.35438200
0.35686300 0.35979000 0.35085700 0.35773300
0.36078400 0.36306400 0.35420400 0.36109900
0.36470600 0.36632600 0.35755800 0.36447400
0.36862700 0.36956800 0.36091300 0.36783800
0.37254900 0.37279100 0.36425800 0.37119600
0.37647100 0.37600000 0.36759600 0.37455400
0.38039200 0.37921200 0.37094100 0.37791800
0.38431400 0.38242700 0.37429200 0.38128900
0.38823500 0.38564100 0.37765000 0.38467100
0.39215700 0.38886400 0.38102400 0.38808200
0.39607800 0.39210000 0.38442500 0.39152300
0.40000000 0.39536100 0.38785600 0.39499500
0.40392200 0.39864800 0.39132300 0.39850000
0.40784300 0.40195500 0.39482100 0.40202100
0.41176500 0.40525000 0.39831300 0.40552500
0.41568600 0.40852900 0.40177700 0.40901200
0.41960800 0.41180200 0.40521700 0.41248900
0.42352900 0.41507700 0.40863800 0.41596900
0.42745100 0.41836300 0.41205300 0.41946700
0.43137300 0.42167500 0.41547500 0.42297700
0.43529400 0.42500900 0.41889900 0.42650300
0.43921600 0.42837900 0.42233400 0.43006300
0.44313700 0.43178800 0.42577600 0.43364800
0.44705900 0.43522700 0.42921900 0.43726200
0.45098000 0.43869100 0.43266500 0.44090800
0.45490200 0.44218100 0.43612400 0.44458000
0.45882400 0.44570000 0.43959000 0.44824700
0.46274500 0.44922400 0.44304900 0.45190600
0.46666700 0.45275300 0.44650300 0.45557200
0.47058800 0.45628900 0.44996600 0.45925500
0.47451000 0.45982900 0.45343900 0.46294600
0.47843100 0.46336900 0.45691300 0.46663000
0.48235300 0.46690700 0.46038200 0.47031800
0.48627500 0.47044700 0.46385400 0.47400600
0.49019600 0.47398900 0.46732600 0.47769600
0.49411800 0.47753600 0.47079700 0.48138800
0.49803900 0.48108500 0.47427000 0.48508700
0.50196100 0.48464200 0.47774300 0.48879900
0.50588200 0.48820900 0.48121600 0.49252800
0.50980400 0.49179300 0.48469900 0.49627300
0.51372500 0.49540000 0.48819500 0.50005400
0.51764700 0.49903300 0.49171200 0.50386300
0.52156900 0.50271100 0.49526800 0.50768000
0.52549000 0.50640000 0.49883300 0.51150400
0.52941200 0.51009700 0.50240500 0.51533700
0.53333300 0.51380000 0.50598400 0.51917700
0.53725500 0.51751100 0.50957000 0.52302000
0.54117600 0.52122800 0.51316500 0.52686800
0.54509800 0.52494500 0.51676900 0.53071900
0.54902000 0.52866400 0.52038100 0.53457000
0.55294100 0.53238400 0.52400200 0.53841700
0.55686300 0.53610400 0.52763000 0.54228600
0.56078400 0.53982800 0.53126800 0.54616600
0.56470600 0.54356900 0.53493000 0.55003400
0.56862700 0.54732300 0.53860800 0.55389100
0.57254900 0.55108100 0.54228700 0.55776800
0.57647100 0.55484300 0.54596800 0.56168300
0.58039200 0.55862500 0.54966100 0.56564000
0.58431400 0.56243500 0.55337200 0.56964100
0.58823500 0.56627800 0.55711000 0.57364100
0.59215700 0.57016800 0.56088400 0.57760900
0.59607800 0.57408500 0.56467500 0.58155800
0.60000000 0.57797300 0.56844600 0.58550800
0.60392200 0.58182500 0.57219500 0.58945600
0.60784300 0.58565700 0.57594000 0.59339800
0.61176500 0.58949400 0.57969900 0.59733300
0.61568600 0.59333900 0.58347100 0.60129200
0.61960800 0.59718900 0.58725400 0.60528400
0.62352900 0.60104800 0.59105800 0.60931400
0.62745100 0.60492200 0.59488500 0.61338500
0.63137300 0.60881100 0.59873200 0.61747200
0.63529400 0.61270500 0.60259900 0.62156300
0.63921600 0.61660600 0.60648400 0.62567500
0.64313700 0.62050900 0.61037400 0.62981100
0.64705900 0.62442300 0.61426500 0.63396700
0.65098000 0.62837700 0.61816900 0.63816200
0.65490200 0.63238200 0.62209300 0.64241600
0.65882400 0.63643900 0.62603300 0.64675400
0.66274500 0.64054100 0.63000500 0.65119500
0.66666700 0.64468700 0.63401600 0.65574600
0.67058800 0.64890400 0.63809000 0.66041000
0.67451000 0.65320400 0.64224000 0.66518400
0.67843100 0.65760800 0.64647600 0.66991800
0.68235300 0.66212200 0.65080600 0.67454100
0.68627500 0.66674600 0.65523200 0.67906000
0.69019600 0.67135100 0.65966500 0.68348400
0.69411800 0.67586300 0.66402300 0.68783300
0.69803900 0.68028600 0.66830900 0.69212600
0.70196100 0.68463600 0.67253000 0.69639500
0.70588200 0.68893500 0.67669700 0.70064800
0.70980400 0.69319600 0.68083000 0.70488900
0.71372500 0.69743200 0.68494900 0.70910700
0.71764700 0.70163400 0.68906000 0.71330000
0.72156900 0.70581800 0.69318600 0.71748400
0.72549000 0.70999000 0.69732700 0.72166400
0.72941200 0.71415300 0.70147700 0.72583600
0.73333300 0.71832400 0.70564400 0.72997100
0.73725500 0.72249900 0.70981800 0.73407400
0.74117600 0.72668000 0.71400000 0.73814900
0.74509800 0.73086200 0.71818600 0.74218800
0.74902000 0.73503400 0.72235900 0.74619100
0.75294100 0.73920000 0.72652800 0.75018400
0.75686300 0.74336400 0.73069300 0.75416900
0.76078400 0.74752200 0.73485400 0.75814500
0.76470600 0.75167900 0.73901600 0.76210600
0.76862700 0.75583600 0.74318100 0.76606100
0.77254900 0.75999000 0.74734800 0.76999500
0.77647100 0.76413800 0.75151100 0.77389500
0.78039200 0.76827400 0.75567500 0.77777900
0.78431400 0.77239400 0.75983000 0.78167900
0.78823500 0.77650200 0.76396400 0.78560700
0.79215700 0.78062200 0.76809400 0.78958100
0.79607800 0.78475900 0.77222500 0.79361000
0.80000000 0.78892200 0.77637300 0.79768500
0.80392200 0.79313100 0.78055400 0.80175400
0.80784300 0.79739200 0.78476900 0.80580800
0.81176500 0.80169100 0.78899800 0.80985200
0.81568600 0.80597600 0.79317900 0.81389200
0.81960800 0.81024200 0.79730300 0.81793800
0.82352900 0.81450200 0.80138200 0.82200600
0.82745100 0.81875600 0.80543000 0.82608800
0.83137300 0.82299400 0.80946300 0.83018900
0.83529400 0.82721600 0.81348100 0.83431400
0.83921600 0.83142900 0.81748100 0.83845100
0.84313700 0.83562900 0.82146300 0.84259000
0.84705900 0.83981800 0.82544000 0.84674300
0.85098000 0.84400100 0.82941400 0.85093300
0.85490200 0.84818100 0.83338900 0.85514800
0.85882400 0.85237700 0.83738300 0.85932700
0.86274500 0.85660300 0.84140400 0.86346300
0.86666700 0.86081300 0.84543100 0.86757600
0.87058800 0.86496700 0.84942300 0.87167900
0.87451000 0.86908300 0.85338500 0.87578800
0.87843100 0.87315700 0.85732800 0.87990700
0.88235300 0.87719000 0.86125000 0.88405000
0.88627500 0.88121100 0.86516500 0.88819900
0.89019600 0.88522100 0.86907600 0.89233000
0.89411800 0.88921800 0.87299000 0.89646000
0.89803900 0.89317500 0.87689400 0.90059600
0.90196100 0.89708200 0.88077300 0.90474400
0.90588200 0.90094100 0.88462900 0.90888200
0.90980400 0.90476200 0.88847800 0.91299200
0.91372500 0.90856000 0.89233400 0.91709200
0.91764700 0.91232900 0.89619200 0.92117500
0.92156900 0.91607200 0.90003600 0.92521600
0.92549000 0.91981600 0.90388400 0.92922900
0.92941200 0.92357900 0.90775800 0.93320300
0.93333300 0.92735800 0.91164400 0.93712800
0.93725500 0.93117700 0.91554900 0.94099900
0.94117600 0.93505000 0.91949000 0.94481100
0.94509800 0.93897700 0.92346300 0.94855500
0.94902000 0.94296500 0.92747700 0.95223100
0.95294100 0.94701500 0.93153000 0.95584400
0.95686300 0.95112700 0.93562100 0.95940000
0.96078400 0.95529800 0.93974800 0.96290200
0.96470600 0.95952500 0.94390700 0.96635400
0.96862700 0.96379100 0.94808700 0.96976000
0.97254900 0.96807900 0.95228400 0.97311900
0.97647100 0.97238400 0.95649500 0.97643300
0.98039200 0.97670500 0.96071900 0.97970200
0.98431400 0.98104300 0.96495600 0.98292800
0.98823500 0.98539800 0.96920800 0.98611100
0.99215700 0.98976900 0.97347300 0.98925200
0.99607800 0.99415700 0.97775100 0.99235300
1.00000000 0.99856200 0.98204400 0.99541300
END_DATA
