CTI3   

DESCRIPTOR "Argyll Calibration Target chart information 3"
ORIGINATOR "Argyll dispread"
CREATED "Tue May 26 13:42:26 2020"
DEVICE_CLASS "DISPLAY"
SINGLE_DIM_STEPS "21"
COMP_GREY_STEPS "61"
DARK_REGION_EMPHASIS "1.6"
COLOR_REP "RGB_XYZ"
TARGET_INSTRUMENT "X-Rite i1 DisplayPro, ColorMunki Display"
DISPLAY_TYPE_REFRESH "YES"
INSTRUMENT_TYPE_SPECTRAL "NO"
LUMINANCE_XYZ_CDM2 "300.683605 314.899068 347.602856"
NORMALIZED_TO_Y_100 "YES"
VIDEO_LUT_CALIBRATION_POSSIBLE "YES"

BEGIN_ARGYLL_COLPROF_ARGS
-v -qh -aX -bn -C "No copyright. Created with DisplayCAL 3.8.9.3 and ArgyllCMS 2.1.2" -M "DELL U2913WM" -A "Dell, Inc."
END_ARGYLL_COLPROF_ARGS

OBSERVER "1931_2"
USE_BLACK_POINT_COMPENSATION "NO"
BLACK_POINT_CORRECTION "0.0"
HIRES_B2A "YES"
HIRES_B2A_SIZE "-1"
SMOOTH_B2A "YES"
PATCH_SEQUENCE "OPTIMIZE_DISPLAY_RESPONSE_DELAY"

NUMBER_OF_FIELDS 7
BEGIN_DATA_FORMAT
SAMPLE_ID RGB_R RGB_G RGB_B XYZ_X XYZ_Y XYZ_Z
END_DATA_FORMAT

NUMBER_OF_SETS 588
BEGIN_DATA
1 100.00000 100.00000 100.00000 95.485710 100.00000 110.38550
2 1.9608000 1.9608000 1.9608000 0.1886955 0.1985026 0.2264578
3 3.9216000 3.9216000 3.9216000 0.3178834 0.3280887 0.3935276
4 5.8824000 5.8824000 5.8824000 0.4905594 0.5239628 0.6014638
5 9.8039000 9.8039000 9.8039000 0.9782252 1.0273561 1.2013271
6 13.726000 13.726000 13.726000 1.7044420 1.7703167 2.0142258
7 17.647000 17.647000 17.647000 2.6219416 2.7336953 3.0866389
8 21.569000 21.569000 21.569000 3.8337817 4.0684343 4.4350328
9 25.490000 25.490000 25.490000 5.1883732 5.4525483 6.0969309
10 29.412000 29.412000 29.412000 6.6784313 7.0277964 7.8216046
11 33.333000 33.333000 33.333000 8.5700747 9.0046738 9.9449271
12 37.255000 37.255000 37.255000 10.740560 11.276807 12.598411
13 41.176000 41.176000 41.176000 13.364162 14.050539 15.378573
14 45.098000 45.098000 45.098000 16.265114 17.160132 18.845215
15 49.020000 49.020000 49.020000 19.436086 20.442484 22.311008
16 52.941000 52.941000 52.941000 23.066369 24.282817 26.931311
17 56.863000 56.863000 56.863000 27.232962 28.622420 31.708194
18 60.784000 60.784000 60.784000 31.596925 33.190973 36.330618
19 64.706000 64.706000 64.706000 35.904998 37.586226 41.666611
20 68.627000 68.627000 68.627000 41.039212 43.008570 47.381986
21 72.549000 72.549000 72.549000 46.220875 48.346484 53.375320
22 76.471000 76.471000 76.471000 52.187719 54.928198 59.845704
23 80.392000 80.392000 80.392000 58.482864 61.635643 67.620630
24 84.314000 84.314000 84.314000 64.834488 68.236028 75.143965
25 88.235000 88.235000 88.235000 72.083263 75.862773 83.139011
26 92.157000 92.157000 92.157000 79.210099 83.373288 91.413867
27 96.078000 96.078000 96.078000 86.646894 90.614403 100.30209
28 23.208200 10.143800 0.0000000 2.1383555 1.6481186 0.2343463
29 36.792500 31.617200 0.0000000 7.2038937 7.8600300 0.7599626
30 61.720300 100.00000 20.112000 51.707839 79.094655 11.022110
31 61.157700 100.00000 58.974000 56.784433 81.443627 38.795769
32 0.0000000 78.302900 27.716200 23.495599 42.686260 10.515870
33 0.0000000 83.178000 69.244100 33.757616 51.707746 49.334347
34 0.0000000 85.566100 100.00000 46.468635 59.868212 107.46100
35 0.0000000 100.00000 100.00000 57.424673 80.895077 109.59980
36 0.0000000 19.825500 57.012000 6.8461482 5.0142770 29.306130
37 0.0000000 21.516300 76.276000 12.043361 7.7307059 55.401111
38 70.321800 44.960500 100.00000 43.252723 29.948381 104.12420
39 13.157900 0.0000000 0.0000000 0.6717951 0.3746757 0.1297979
40 16.304300 0.0000000 0.0000000 0.9587319 0.5179408 0.1413301
41 19.662900 0.0000000 0.0000000 1.2506118 0.6639009 0.1495890
42 23.255800 0.0000000 0.0000000 1.7177382 0.8976971 0.1599973
43 27.108400 0.0000000 0.0000000 2.3109085 1.1948773 0.1702963
44 31.250000 0.0000000 0.0000000 3.0014890 1.5405965 0.1813582
45 35.714300 0.0000000 0.0000000 3.8696260 1.9771568 0.1946749
46 40.540500 0.0000000 0.0000000 4.9740063 2.5300982 0.2108912
47 45.774700 0.0000000 0.0000000 6.4915237 3.2911477 0.2338672
48 51.470600 0.0000000 0.0000000 8.3951628 4.2459344 0.2621514
49 54.451600 0.0000000 0.0000000 9.4859520 4.7918838 0.2786149
50 57.692300 0.0000000 0.0000000 10.866070 5.4832903 0.2989432
51 64.516100 0.0000000 0.0000000 13.955852 7.0332554 0.3451543
52 72.033900 0.0000000 0.0000000 17.863145 8.9890578 0.4035864
53 80.357100 0.0000000 0.0000000 22.610939 11.367577 0.4748294
54 100.00000 0.0000000 100.00000 56.998473 27.475009 103.13829
55 100.00000 30.647900 100.00000 60.109655 33.151613 103.69050
56 100.00000 51.479700 100.00000 65.994719 44.238581 104.73280
57 22.273300 0.0000000 35.406600 3.4994714 1.6946376 10.374330
58 30.123700 0.0000000 55.993500 8.1075378 3.8379221 28.582185
59 100.00000 0.0000000 67.028400 45.618785 22.504785 42.803262
60 100.00000 0.0000000 82.140500 49.986688 24.459967 65.966759
61 0.0000000 19.662900 0.0000000 1.2842132 2.3515331 0.3611826
62 0.0000000 23.255800 0.0000000 1.7438802 3.2185177 0.4457046
63 0.0000000 27.108400 0.0000000 2.3518400 4.3505715 0.5569097
64 0.0000000 31.250000 0.0000000 3.0390587 5.6563074 0.6849885
65 0.0000000 35.714300 0.0000000 3.9104174 7.3085226 0.8467207
66 0.0000000 40.540500 0.0000000 5.0951362 9.5611132 1.0684048
67 0.0000000 45.774700 0.0000000 6.7202403 12.636478 1.3693091
68 0.0000000 51.470600 0.0000000 8.5469676 16.095561 1.7098063
69 0.0000000 57.692300 0.0000000 11.115920 20.952964 2.1861266
70 0.0000000 64.516100 0.0000000 14.137013 26.657978 2.7461380
71 0.0000000 72.033900 0.0000000 18.018105 33.990393 3.4652415
72 0.0000000 80.357100 0.0000000 23.459809 44.312251 4.4804783
73 100.00000 100.00000 0.0000000 75.959256 91.137544 7.8612426
74 100.00000 100.00000 28.160100 77.222807 91.727254 14.586572
75 100.00000 100.00000 51.008300 80.288599 93.168395 30.621354
76 0.0000000 0.0000000 4.8077000 0.1332092 0.1042715 0.3975196
77 0.0000000 0.0000000 7.4257000 0.1888786 0.1288675 0.6907801
78 0.0000000 0.0000000 10.204100 0.2763683 0.1677995 1.1528967
79 0.0000000 0.0000000 13.157900 0.3827637 0.2152206 1.7077414
80 0.0000000 0.0000000 16.304300 0.5389578 0.2850146 2.5256766
81 0.0000000 0.0000000 19.662900 0.6975936 0.3567527 3.3664076
82 0.0000000 0.0000000 23.255800 0.9288499 0.4603897 4.5963956
83 0.0000000 0.0000000 27.108400 1.1986126 0.5820538 6.0276055
84 0.0000000 0.0000000 31.250000 1.5746830 0.7521110 8.0315496
85 0.0000000 0.0000000 35.714300 2.0100764 0.9489041 10.343056
86 0.0000000 0.0000000 40.540500 2.6099136 1.2194293 13.523716
87 0.0000000 0.0000000 45.774700 3.4165305 1.5840325 17.791682
88 0.0000000 0.0000000 51.470600 4.3199189 1.9934898 22.587408
89 0.0000000 0.0000000 57.692300 5.7110944 2.6261643 29.966762
90 0.0000000 0.0000000 64.516100 7.2792963 3.3343938 38.279715
91 0.0000000 0.0000000 72.033900 9.2370093 4.2043104 48.615983
92 0.0000000 0.0000000 80.357100 11.841851 5.3766312 62.439494
93 0.0000000 0.0000000 89.622600 15.248283 6.8804233 80.465529
94 33.354100 0.0000000 29.919900 4.6983309 2.3234761 7.5322126
95 34.164200 26.637600 66.890900 13.740182 9.6897823 42.349692
96 35.540500 36.893800 100.00000 27.598342 18.714843 103.46740
97 41.630500 50.705400 100.00000 33.283766 27.407679 104.25320
98 3.1447000 3.1447000 3.1447000 0.2543207 0.2636496 0.3206862
99 3.9683000 3.9683000 3.9683000 0.3172882 0.3269017 0.3940988
100 4.8077000 4.8077000 4.8077000 0.3789510 0.3991017 0.4589489
101 5.6634000 5.6634000 5.6634000 0.4419684 0.4620887 0.5591508
102 6.5359000 6.5359000 6.5359000 0.5789916 0.6076528 0.6903228
103 7.4257000 7.4257000 7.4257000 0.6663160 0.6990379 0.7881719
104 8.3333000 8.3333000 8.3333000 0.7661164 0.8075520 0.8987088
105 9.2593000 9.2593000 9.2593000 0.9350300 1.0035881 1.1227104
106 10.204100 10.204100 10.204100 1.0518714 1.1019162 1.2938834
107 11.168400 11.168400 11.168400 1.2162659 1.2717473 1.4817255
108 12.152800 12.152800 12.152800 1.3981368 1.4537884 1.6783102
109 13.157900 13.157900 13.157900 1.6362638 1.7322206 1.9146418
110 14.184400 14.184400 14.184400 1.7628323 1.8515527 2.1370612
111 15.233000 15.233000 15.233000 2.0842634 2.1919290 2.3993495
112 16.304300 16.304300 16.304300 2.3532465 2.4598772 2.8075234
113 17.399300 17.399300 17.399300 2.5339311 2.6825183 2.9554140
114 18.518500 18.518500 18.518500 2.8342869 2.9838065 3.4038652
115 19.662900 19.662900 19.662900 3.1271297 3.2879647 3.7336812
116 20.833300 20.833300 20.833300 3.5341041 3.7362081 4.2461931
117 22.030700 22.030700 22.030700 3.9836379 4.1993064 4.6204385
118 23.255800 23.255800 23.255800 4.3242354 4.5229896 5.0753699
119 24.509800 24.509800 24.509800 4.7563528 4.9703239 5.5855551
120 25.793600 25.793600 25.793600 5.3048633 5.5838874 6.1190150
121 27.108400 27.108400 27.108400 5.8209387 6.1109807 6.6775886
122 28.455300 28.455300 28.455300 6.3887821 6.6649631 7.4271812
123 29.835400 29.835400 29.835400 6.8458154 7.1884685 8.0219627
124 31.250000 31.250000 31.250000 7.6236110 7.9696600 8.8659973
125 32.700400 32.700400 32.700400 8.1466974 8.5549335 9.5232478
126 34.188000 34.188000 34.188000 8.9704159 9.4111741 10.430269
127 35.714300 35.714300 35.714300 9.8493226 10.304397 11.399480
128 37.280700 37.280700 37.280700 10.721170 11.240197 12.618901
129 38.888900 38.888900 38.888900 11.809461 12.418418 13.745902
130 40.540500 40.540500 40.540500 12.817872 13.473589 14.871923
131 42.237400 42.237400 42.237400 14.168643 14.850330 16.341504
132 43.981500 43.981500 43.981500 15.411563 16.233091 17.594515
133 45.774700 45.774700 45.774700 16.855455 17.747322 19.532726
134 47.619100 47.619100 47.619100 18.103745 19.038393 20.939937
135 49.516900 49.516900 49.516900 19.738287 20.706714 22.722228
136 51.470600 51.470600 51.470600 21.551518 22.619345 24.786730
137 53.482600 53.482600 53.482600 23.437249 24.622167 27.444011
138 55.555600 55.555600 55.555600 25.878511 27.181639 30.290023
139 57.692300 57.692300 57.692300 28.083862 29.440440 32.760145
140 59.895800 59.895800 59.895800 30.582674 32.131732 35.358227
141 62.169300 62.169300 62.169300 33.060606 34.581854 38.482379
142 64.516100 64.516100 64.516100 35.837428 37.476866 41.734622
143 66.939900 66.939900 66.939900 39.095710 40.892798 45.144854
144 69.444400 69.444400 69.444400 42.022032 43.950780 48.647156
145 72.033900 72.033900 72.033900 45.598685 47.647393 52.868169
146 74.712600 74.712600 74.712600 49.974188 52.351506 57.625083
147 77.485400 77.485400 77.485400 54.043491 56.786569 62.225866
148 80.357100 80.357100 80.357100 58.383744 61.467943 67.731020
149 83.333300 83.333300 83.333300 62.508917 65.763246 72.702663
150 86.419700 86.419700 86.419700 68.048331 71.640110 78.772448
151 89.622600 89.622600 89.622600 74.806415 78.664985 86.964363
152 92.948700 92.948700 92.948700 80.663260 84.688119 93.375048
153 96.405200 96.405200 96.405200 87.396824 91.272304 101.49739
154 43.418700 46.659400 0.0000000 12.899192 16.029681 1.5013891
155 42.115900 100.00000 0.0000000 43.629823 74.821872 7.3850323
156 62.168800 100.00000 75.618800 61.555036 83.341318 61.640846
157 0.0000000 55.108800 54.076100 15.173883 21.605825 27.821182
158 32.635900 58.400500 75.279800 24.940290 28.171789 55.663131
159 80.756800 60.412800 73.506200 45.220955 39.574927 53.701000
160 23.557000 72.165500 15.166900 20.220007 35.199434 5.6190111
161 33.927100 100.00000 25.247100 42.632513 74.282102 12.751471
162 100.00000 100.00000 69.330000 84.434552 94.869866 53.253730
163 100.00000 100.00000 86.187000 89.662346 97.208448 81.087399
164 0.0000000 12.166200 36.068300 2.5829037 1.9726158 10.673115
165 27.866900 15.761800 37.204000 5.4300822 3.7873811 11.942380
166 47.189400 64.015100 0.0000000 20.742827 29.405720 2.7804421
167 64.358300 64.568100 0.0000000 28.050722 33.578353 2.9521802
168 53.301200 0.0000000 76.442000 19.446126 9.2556290 55.758631
169 73.299900 0.0000000 76.229000 28.893343 13.996429 55.269631
170 85.432800 100.00000 78.318400 75.686516 90.335633 66.953239
171 90.280700 100.00000 93.306000 84.293062 94.328136 95.297299
172 0.0000000 100.00000 49.402400 41.846132 73.744851 27.871772
173 0.0000000 100.00000 68.503300 46.174175 75.683673 50.755008
174 0.0000000 66.449200 54.589300 20.214577 31.017171 29.189553
175 0.0000000 67.698800 78.442600 27.134632 35.283074 61.708126
176 0.0000000 0.0000000 100.00000 19.374836 8.6277155 102.47549
177 0.0000000 21.801800 100.00000 21.033757 11.746118 102.78619
178 0.0000000 49.317400 100.00000 27.446232 23.873436 103.93240
179 31.353200 62.948000 100.00000 36.106908 36.038145 105.17200
180 56.730000 79.256300 100.00000 52.959360 57.226660 106.98050
181 82.492700 88.963000 100.00000 73.226524 76.763074 108.46270
182 0.0000000 37.309800 24.173500 5.2734493 8.5492995 5.8855882
183 0.0000000 61.410900 27.074700 13.936232 24.668497 8.4090060
184 46.155400 83.696300 82.702800 44.915114 57.299550 71.622363
185 48.036200 100.00000 100.00000 64.739858 84.307609 109.83520
186 59.529000 60.875900 84.709400 37.919319 36.004905 73.288044
187 65.164000 75.507800 90.452500 50.584268 53.077617 86.587603
188 0.0000000 0.0000000 0.0000000 0.0749347 0.0784774 0.0866276
189 41.199400 30.167100 11.263100 8.3155865 8.0520961 2.0009375
190 67.943800 36.208600 21.742200 20.709147 15.909731 5.1735637
191 100.00000 100.00000 100.00000 95.156120 99.514430 110.38180
192 41.000400 0.0000000 22.308700 5.9920240 2.9986385 4.5502812
193 54.045100 0.0000000 39.596500 11.792511 5.8226935 13.476821
194 50.916100 14.897900 32.388900 10.780570 6.4386600 9.1688964
195 57.974800 28.883100 64.866700 20.935967 13.798309 39.512720
196 100.00000 28.738300 83.496700 53.174800 29.580470 69.594341
197 24.782400 0.0000000 13.078500 2.2593412 1.1527992 1.8264700
198 28.821200 19.296900 21.253200 4.5674671 3.9930882 4.4200263
199 41.467000 27.297800 23.167900 8.6665047 7.6350838 5.2870708
200 65.416200 27.824600 24.006100 17.944675 12.380948 5.7813892
201 65.626300 55.306900 29.838100 26.190401 27.224809 9.6505399
202 70.172800 68.089800 35.355300 35.245827 39.943958 13.730752
203 69.707400 72.131400 62.891400 41.972852 45.913672 40.047010
204 79.470300 76.234600 100.00000 62.818267 59.323921 106.81420
205 0.0000000 0.0000000 2.3364000 0.1012932 0.0900883 0.2293046
206 14.146600 0.0000000 15.491600 1.1302160 0.5818208 2.3572815
207 29.314300 9.4785000 25.615900 4.0610874 2.5293132 5.8181722
208 46.315400 24.865700 30.770700 10.132250 7.7291479 8.3586600
209 13.106800 10.835200 0.0000000 1.0877430 1.2045723 0.2289739
210 29.412000 19.508800 0.0000000 3.8521780 3.6292390 0.3989597
211 37.635200 37.554100 46.099700 12.272081 12.204278 19.377766
212 40.769900 41.090900 67.516600 18.545526 16.388531 43.518883
213 56.284500 47.869900 76.722700 28.564113 24.164176 57.942963
214 100.00000 81.137500 0.0000000 61.663526 64.070445 5.1468837
215 100.00000 84.360900 30.450100 65.246839 68.696908 13.425302
216 100.00000 84.297300 53.286100 68.623721 70.266919 31.234684
217 100.00000 28.928200 0.0000000 40.211601 23.673126 1.1714449
218 100.00000 32.661100 18.492500 41.533202 25.310477 4.4430092
219 100.00000 71.063300 85.919200 69.027431 58.336101 76.409996
220 100.00000 73.524200 100.00000 76.235456 63.677964 106.76100
221 100.00000 87.365400 100.00000 85.565763 81.262687 108.48960
222 0.7645000 0.7645000 0.7645000 0.1281017 0.1317975 0.1551704
223 0.0000000 0.0000000 0.0000000 0.0749749 0.0784520 0.0866816
224 0.0000000 25.808900 48.778000 5.9719908 5.8058655 20.448176
225 0.0000000 38.483700 65.060500 12.051891 12.208228 39.673860
226 100.00000 0.0000000 0.0000000 37.563639 18.868923 0.7041856
227 100.00000 0.0000000 14.153500 37.934609 19.030063 2.6352879
228 100.00000 0.0000000 26.320200 38.677210 19.366673 6.5949297
229 100.00000 0.0000000 40.817200 40.247461 20.075674 14.907723
230 40.843900 16.016800 0.0000000 6.0115852 4.2163584 0.3703044
231 60.289800 22.431100 0.0000000 13.766862 9.0774528 0.6065715
232 59.531400 46.299000 0.0000000 18.602126 18.721093 1.5672622
233 68.520000 45.876100 60.003700 29.201763 23.816616 34.455496
234 0.0000000 2.3364000 0.0000000 0.1284274 0.1753395 0.1116906
235 0.0000000 16.007700 28.658600 2.1935680 2.2754410 6.9123350
236 0.0000000 51.301500 61.228100 15.086483 19.289003 35.388517
237 0.0000000 54.449500 79.610400 21.500198 24.038276 62.810406
238 64.069900 58.056700 100.00000 44.877274 37.442856 104.97810
239 31.015600 0.0000000 81.163800 14.885483 6.8861193 63.700297
240 45.061100 0.0000000 100.00000 25.530191 11.703078 102.72159
241 56.405700 26.992000 100.00000 32.155695 18.352242 103.24059
242 80.305900 100.00000 100.00000 80.257339 91.972904 110.12070
243 100.00000 100.00000 100.00000 95.066170 99.398020 110.38110
244 52.010600 30.611800 0.0000000 11.639351 9.7516693 0.7884316
245 76.307300 42.852800 0.0000000 26.100331 20.913934 1.4875941
246 100.00000 64.096400 0.0000000 51.390479 44.735121 3.2448044
247 100.00000 69.956300 43.630300 57.671913 52.199106 20.044536
248 0.0000000 13.157900 0.0000000 0.7110403 1.2641703 0.2541689
249 0.0000000 23.395900 23.350200 2.7263048 3.7926871 5.1174206
250 0.0000000 26.505000 34.684000 4.1443694 5.1502831 10.113778
251 6.7558000 45.458800 50.113600 10.994500 14.596210 22.897128
252 31.032300 74.433400 49.310000 26.630751 40.470098 24.803470
253 33.464900 100.00000 45.432900 44.693464 75.066412 25.048600
254 33.496400 100.00000 62.776400 48.150497 76.625664 43.448923
255 36.295700 100.00000 78.272500 53.244770 78.935935 66.421189
256 60.078300 100.00000 91.548400 65.871549 85.048769 90.723476
257 89.622600 0.0000000 0.0000000 28.967923 14.559040 0.5720875
258 100.00000 0.0000000 53.709400 42.454013 21.074524 26.832411
259 100.00000 29.344500 68.903500 48.796287 27.794349 46.028665
260 1.5432000 1.5432000 1.5432000 0.1669142 0.1733865 0.1983642
261 2.3364000 2.3364000 2.3364000 0.2111374 0.2157996 0.2603405
262 0.0000000 16.304300 0.0000000 0.9741609 1.7621787 0.3037414
263 17.918200 21.591700 0.0000000 2.5761409 3.4033838 0.4307863
264 23.692600 35.583000 0.0000000 5.5650765 8.1072711 0.8708477
265 24.943000 46.109600 42.731400 11.867991 15.402750 16.757744
266 22.053000 68.914100 53.755700 22.969369 34.194674 28.955713
267 100.00000 47.198700 0.0000000 44.668984 32.094662 2.0020725
268 100.00000 52.741900 21.546000 47.503476 36.337925 6.5121657
269 100.00000 61.356700 48.774000 54.194751 44.479931 23.670579
270 100.00000 63.216700 66.005000 58.900614 47.952543 43.800543
271 100.00000 77.572800 81.067500 71.528373 65.420296 68.578690
272 4.8077000 0.0000000 0.0000000 0.1875546 0.1341975 0.0978732
273 7.4257000 0.0000000 0.0000000 0.3028203 0.1911236 0.1074853
274 10.204100 0.0000000 0.0000000 0.4419366 0.2602176 0.1172435
275 0.0000000 4.8077000 0.0000000 0.2029060 0.3113726 0.1391350
276 0.0000000 7.4257000 0.0000000 0.3176328 0.5235888 0.1722224
277 0.0000000 10.204100 0.0000000 0.4695315 0.8085640 0.2071365
278 0.0000000 39.438000 79.411000 16.392054 14.592070 61.130675
279 0.0000000 62.568200 100.00000 32.864296 34.102113 104.96660
280 0.0000000 73.441800 100.00000 38.458790 44.688991 105.97320
281 32.727500 76.470100 100.00000 43.630223 49.974265 106.55180
282 71.092200 0.0000000 16.120300 17.787955 8.9223977 2.7907981
283 80.440100 0.0000000 32.102900 24.136340 12.058848 9.1071015
284 100.00000 25.987400 44.919100 43.111043 24.425617 18.776035
285 45.412000 0.0000000 13.673400 6.6705292 3.3627998 2.0056433
286 59.870700 0.0000000 25.701900 12.876862 6.4375660 5.9351912
287 74.719800 0.0000000 100.00000 38.765970 18.336942 102.83479
288 81.060800 30.473200 100.00000 45.518575 25.838478 103.42900
289 0.0000000 89.622600 0.0000000 29.977744 56.576049 5.7217871
290 0.0000000 100.00000 0.0000000 37.876499 71.760570 7.2893792
291 0.0000000 100.00000 27.928200 39.059390 72.300430 13.547422
292 82.625900 100.00000 47.296200 66.167869 85.780330 27.172351
293 32.713400 76.829100 0.0000000 24.215910 41.222209 4.0845550
294 57.123900 82.695800 0.0000000 35.910658 52.646427 4.9488456
295 74.052300 100.00000 0.0000000 57.351913 81.484587 7.5853444
296 82.620800 100.00000 25.454200 63.468377 84.504499 13.286071
297 0.0000000 42.728100 17.559700 6.3082441 11.105877 3.8908158
298 73.283000 48.039000 53.750300 31.076155 25.634988 27.758202
299 100.00000 52.726900 69.967300 55.475312 40.053758 48.357916
300 100.00000 87.146900 70.937300 74.761475 75.906793 53.563630
301 28.969000 21.395500 15.475300 4.5816895 4.4365736 2.5723156
302 81.844600 25.306400 21.327100 26.595071 16.174371 4.9515366
303 84.338700 27.213600 41.969000 30.374994 18.345562 15.859793
304 84.183700 73.989700 58.709000 50.723028 52.121446 35.603137
305 22.332000 38.870500 22.738400 7.1798857 10.124227 5.4965110
306 33.525600 49.562200 29.724300 12.660152 17.226062 8.9848824
307 41.483200 70.424400 32.910600 24.408720 36.091525 12.384461
308 71.335300 81.344400 61.165500 48.446487 57.340940 39.154160
309 51.087800 72.662600 50.569400 30.935744 40.698598 25.806120
310 71.810300 72.839500 50.355200 40.733951 45.899082 25.662930
311 83.718700 73.493200 70.583700 52.555170 52.259036 50.947228
312 94.467700 82.420700 74.789700 68.203261 68.244508 58.948854
313 100.00000 89.541000 86.385100 81.384660 81.477447 79.531598
314 8.7678000 7.4131000 18.410100 1.1859754 0.9375381 3.2123093
315 10.689300 11.774000 28.091100 2.2100135 1.7703507 6.7783414
316 16.247700 17.026400 40.682100 4.5120890 3.5088819 14.226162
317 29.109800 23.581200 52.907900 9.1318720 6.8328572 25.439650
318 42.444100 32.245400 54.919900 13.962612 11.203557 27.971162
319 45.687300 36.485100 82.943300 23.493269 16.909831 68.457450
320 13.619800 69.459800 64.524800 24.708040 35.219574 41.760312
321 37.184300 73.497500 67.638200 31.231205 41.583159 46.047695
322 27.500000 54.205200 0.0000000 11.897911 19.191923 1.9432795
323 70.714700 76.762000 13.276100 38.798620 48.647794 5.9966463
324 82.257700 90.629500 12.925000 55.103411 70.032829 7.8878567
325 20.132800 71.025400 33.626800 20.554627 34.431874 12.722351
326 18.203800 85.148500 77.309300 38.349150 55.541839 61.897386
327 60.472200 90.350400 100.00000 62.116226 72.240190 108.44910
328 16.809800 12.749000 69.341500 10.055710 5.5106933 45.197932
329 18.426200 29.718100 77.928600 14.904303 10.772667 58.935244
330 88.347500 34.862900 84.710400 45.280975 27.299529 72.005083
331 14.793400 84.622100 41.441100 29.761684 51.162736 19.425526
332 17.515000 87.307500 54.688300 34.379787 56.241609 32.009585
333 14.217000 87.701500 65.577300 36.754939 57.726560 45.031264
334 33.683000 23.306900 31.627700 6.7627733 5.7094914 8.8393409
335 37.420900 26.470800 42.479800 9.3422492 7.7027939 15.694823
336 41.650100 48.610300 54.573900 18.116765 19.482303 28.335132
337 42.002000 49.835700 67.144600 21.474848 21.577255 43.535373
338 43.040000 58.828100 67.625300 25.639701 28.783280 44.753554
339 46.420500 62.441200 84.786100 33.323936 34.371574 73.325194
340 47.942200 73.355900 87.547600 40.605051 45.998902 79.344488
341 65.541800 91.379000 93.313600 62.474817 73.798962 93.695378
342 0.0000000 0.0000000 0.0000000 0.0749442 0.0784649 0.0866576
343 21.045500 10.972900 8.5366000 2.0607832 1.6959096 1.0218118
344 32.494100 34.437600 11.406300 7.0807666 8.5937935 2.1229516
345 40.046600 50.531400 14.843200 13.629592 18.299652 3.8651678
346 46.716600 59.672100 36.167700 20.967877 27.143489 13.214551
347 58.333500 85.776600 42.815200 41.325392 58.153360 20.753137
348 65.252300 87.696700 58.063800 48.915737 63.893855 36.579428
349 100.00000 100.00000 100.00000 94.943630 99.207239 110.37950
350 14.090500 59.471700 17.574800 13.244002 23.285976 5.1265727
351 42.051700 69.644400 16.983300 22.867939 34.774994 5.9724103
352 49.658100 84.518400 17.656200 34.765577 53.721917 7.9272357
353 68.444500 90.385000 28.602700 47.888116 66.008636 12.877421
354 16.130600 15.848800 57.354400 7.3481374 4.5890807 30.039808
355 17.393900 20.390700 87.969200 16.796124 9.6203352 76.750056
356 21.667900 44.094100 92.268800 23.835799 19.860743 86.240163
357 0.0000000 78.008800 78.097600 32.932436 46.423922 62.097996
358 65.149500 88.415000 82.551700 55.998682 67.562367 72.483163
359 11.903200 18.190300 6.6130000 1.7062817 2.3503101 0.8632998
360 21.877900 19.586000 7.8931000 2.9555752 3.2004167 1.0488605
361 26.586000 28.837500 16.730700 5.3365913 6.2474478 3.2763443
362 48.931300 37.195000 46.289300 15.426343 13.524519 19.449206
363 53.785400 49.239200 57.159800 22.896079 22.209345 31.680744
364 51.570600 13.873000 23.385200 10.197370 5.9956977 5.1975566
365 61.142800 26.148900 31.288700 16.136054 11.079757 8.9233124
366 100.00000 35.399900 58.340800 47.351816 28.803900 32.569115
367 100.00000 51.720800 84.084200 59.563015 41.473039 71.609693
368 65.258600 14.984300 11.905800 15.328653 8.7700726 1.8673544
369 72.756700 26.192400 11.533700 20.864397 13.476609 2.0972546
370 79.142800 25.861600 0.0000000 24.239910 15.041720 0.8525217
371 87.492600 44.783300 67.317700 41.955622 29.627150 44.287013
372 63.657200 16.069100 75.377700 24.602940 13.076479 53.974340
373 71.150000 31.116000 75.716100 30.716424 19.044573 55.143551
374 75.920700 49.325700 76.177100 38.526340 29.844470 56.839372
375 92.375900 59.544600 83.467700 56.327282 44.452671 71.270492
376 26.859000 42.927400 13.610900 8.3246965 12.101658 2.9962192
377 28.497200 53.479000 15.158000 12.316031 19.121443 4.0223029
378 30.508400 61.492100 35.779600 17.616565 26.424908 13.000401
379 59.844800 70.243600 41.254400 31.841175 39.494637 17.792545
380 72.171200 83.896400 43.499300 46.799446 58.903991 21.218247
381 85.345800 89.887600 58.199000 62.199207 72.559951 37.163328
382 79.512700 60.505700 0.0000000 34.736417 34.356594 2.7456690
383 89.055500 69.774300 36.486800 47.470476 47.051713 14.801623
384 93.524900 71.300400 53.126900 54.454871 51.590336 29.119593
385 62.349300 11.541200 36.766800 15.630194 8.4540004 11.909000
386 68.036200 16.003400 48.587000 20.583707 11.374437 20.959927
387 83.917000 17.429600 52.336500 30.387854 16.462311 24.617689
388 76.373900 0.0000000 45.233000 23.521279 11.658758 17.992945
389 82.454100 15.542900 72.241400 34.086567 17.804312 49.775147
390 48.216900 0.0000000 52.171300 11.716041 5.6859744 24.011658
391 49.321400 12.863200 63.820100 15.490984 8.3051323 38.061639
392 3.4677000 50.694600 86.887000 22.605419 22.284395 76.199626
393 27.074900 50.584400 86.397900 24.527620 23.253856 74.723935
394 28.098200 64.975100 92.069700 33.230626 36.201515 87.821764
395 0.0000000 39.114800 38.190200 7.1509087 10.198677 12.901061
396 0.0000000 52.730200 37.667500 11.316121 18.147042 13.446222
397 10.360000 62.742300 39.442900 16.192424 26.441428 15.670523
398 41.739800 86.987600 34.257800 35.222597 56.334079 15.041703
399 61.840400 100.00000 41.347100 53.568050 79.379655 21.786077
400 46.312300 43.140200 13.407500 12.882712 14.529340 2.9910952
401 46.820200 49.853600 41.040700 17.591015 19.832573 15.973383
402 19.988000 26.835800 32.832900 5.2586013 5.7103424 9.4841524
403 26.483500 28.389000 40.879200 7.4403498 7.1253764 14.589702
404 28.856800 38.916900 40.749300 10.031190 11.496568 15.002173
405 56.674200 61.664100 49.322000 27.443682 31.284282 23.761099
406 57.228100 69.841500 59.761100 33.907487 40.131598 35.760347
407 60.882200 75.828200 71.271400 41.975462 48.914884 52.068609
408 0.0000000 38.288400 51.781000 9.0557180 10.807017 23.888149
409 0.0000000 37.506100 100.00000 23.935659 17.241252 103.33820
410 36.870600 25.989200 84.887400 19.605536 12.163558 71.205312
411 46.986200 51.427000 86.320100 29.493693 26.161778 74.921645
412 74.577500 64.367400 92.728600 49.878868 43.780670 88.962615
413 0.0000000 77.415600 48.547600 25.204710 42.102769 24.041339
414 34.547400 83.940100 67.435800 37.373409 53.966958 47.295695
415 50.849600 88.000000 76.912800 47.680276 63.036634 61.831466
416 14.436500 4.6598000 11.224400 1.1285465 0.7649720 1.4248673
417 25.142000 10.257100 15.997400 2.8918646 2.0117978 2.6032111
418 38.883200 10.086900 41.748900 7.7346395 4.3326255 14.786858
419 61.958000 11.554900 60.067400 19.461366 10.180057 33.237046
420 61.463100 41.262000 65.174500 25.414511 19.840373 40.612911
421 66.094300 54.837400 66.008000 32.720776 30.008641 42.585562
422 85.532500 66.868200 71.244400 50.850028 46.635452 51.466968
423 92.003400 79.217200 86.490700 67.652100 64.755595 78.846678
424 86.375900 7.0161000 17.753400 27.167242 13.937239 3.3943295
425 94.071300 16.238900 49.651400 37.567349 19.866233 22.423438
426 73.765200 13.286200 36.294400 21.638588 11.668838 11.598440
427 84.000300 35.967300 53.319300 33.754506 22.274285 26.851891
428 88.120100 47.703400 55.194800 40.792531 30.481571 29.760953
429 88.171700 56.966900 66.802500 46.885186 38.240386 44.115803
430 69.646100 44.414000 36.230700 25.185190 21.284214 12.368091
431 84.797800 49.929600 39.507000 36.087648 29.101530 15.340263
432 93.089600 63.462400 58.690300 51.267129 44.394301 34.714357
433 56.427300 54.365800 13.450200 20.593567 23.919946 3.7931618
434 71.391100 57.641900 16.582100 29.417143 30.172751 5.0065126
435 84.561300 58.216700 34.142300 38.744440 35.080794 12.350541
436 37.220800 32.638000 23.612900 8.3804685 8.6820715 5.5940070
437 39.614000 43.677400 27.841100 12.039641 14.243669 7.7578576
438 61.170200 47.273000 34.578400 21.547368 20.771724 11.538120
439 61.330000 50.835700 46.801800 24.466330 23.845816 20.682917
440 77.739400 58.432000 46.968000 36.383498 34.071093 21.749437
441 83.125300 64.530300 61.309700 45.091644 42.036509 37.535789
442 88.639300 72.582900 11.335900 46.624456 48.577704 5.2333808
443 88.242200 93.487200 38.388800 63.186287 76.699024 19.234326
444 10.691200 23.529400 38.544700 4.5661316 4.6565197 12.780079
445 16.620300 25.804600 50.057100 7.1884587 6.3871339 22.186527
446 30.858500 35.768600 55.943200 12.275861 11.363517 29.400603
447 87.351700 16.446200 29.936400 29.731724 16.138481 8.1938429
448 87.550300 39.249600 31.693800 33.871757 23.612516 9.9157351
449 84.192700 36.601600 39.217000 31.775495 21.514565 14.335822
450 100.00000 47.033000 49.792600 48.860447 34.218104 23.725659
451 52.576100 18.025700 10.075900 10.228530 6.6195861 1.5655812
452 71.631900 47.906200 13.368300 25.674491 23.021476 3.4536295
453 87.450400 48.710100 26.783000 36.214528 28.665910 7.9743967
454 100.00000 48.579200 33.588100 47.027606 34.072183 11.685650
455 48.930000 43.087800 58.613400 19.387596 17.622462 32.181585
456 50.821500 63.327000 62.951400 28.869293 32.876773 39.478890
457 58.607800 66.616000 73.980300 36.496758 39.131307 55.282321
458 29.132400 58.675000 55.440400 19.583856 25.831538 29.888603
459 39.545900 66.320800 68.643900 28.337313 34.845004 47.001555
460 42.134700 80.106000 89.507200 43.888794 53.481187 84.351722
461 13.066000 51.419600 43.680600 12.227221 17.952662 17.575804
462 27.108100 51.040300 56.224600 16.195664 19.639573 30.204253
463 14.928300 36.810800 40.781100 7.6178180 9.5134061 14.815293
464 16.317800 37.765100 57.546900 11.141280 11.524338 31.227444
465 12.647600 30.026300 63.974100 10.543860 8.8740217 38.172839
466 28.137900 39.131600 75.194500 17.444735 15.024010 54.452381
467 71.517600 69.507700 83.382300 47.482946 46.371862 71.834323
468 86.161400 76.425600 91.687500 63.450157 60.062502 88.675925
469 87.757000 87.501500 94.406700 73.229714 75.078822 95.902570
470 2.3364000 0.0000000 0.0000000 0.1279293 0.1046055 0.0922200
471 10.713600 17.679200 23.108500 2.3534596 2.5722172 4.9147953
472 21.654100 19.177700 29.772700 4.1401714 3.7541291 7.7207480
473 41.321200 20.227300 36.612100 8.6893837 6.1626158 11.438220
474 47.982200 42.132100 36.072300 14.809773 15.019340 12.033591
475 47.822600 40.595400 25.294700 13.533182 13.967479 6.8279139
476 51.325800 64.262700 24.776800 23.528629 31.131551 8.1346008
477 59.299100 76.015200 20.454800 32.937946 44.977981 7.8339456
478 86.249700 84.764000 65.779700 60.457965 66.289606 45.870664
479 13.624900 31.477700 10.839400 3.9492474 6.1452868 1.9612724
480 29.580200 35.205400 27.366200 7.6478560 9.0942918 7.1393731
481 53.519200 54.160200 31.776600 20.410697 23.583396 10.449269
482 61.455200 56.531600 42.398400 26.217391 27.832979 17.453594
483 68.517200 62.199700 53.915800 34.222857 35.136734 28.780952
484 84.542900 84.905900 74.899800 62.298147 67.500897 59.082254
485 11.324400 20.771600 15.631100 2.3476039 3.1372066 2.6255957
486 16.106600 28.410900 17.412400 3.9093403 5.4405673 3.2365111
487 59.232600 31.162200 84.719800 27.905072 17.481362 71.553003
488 68.409900 48.269000 85.840100 37.159689 28.467330 74.104324
489 84.971700 59.801400 100.00000 57.451743 44.669381 105.29800
490 18.070000 5.9437000 26.866000 2.3968592 1.4261964 6.2390374
491 26.333400 47.569400 71.893600 18.623386 19.025253 49.891027
492 26.388200 64.326200 74.649300 26.206201 32.156022 55.464311
493 26.216700 75.098700 77.858700 33.384986 44.140421 62.239316
494 63.887300 67.174800 20.371700 30.113384 36.492265 6.9176120
495 83.146900 70.465400 24.731400 42.570393 45.164311 9.0095934
496 100.00000 70.047400 25.360000 55.712992 51.451416 9.5857359
497 100.00000 75.024300 64.157100 64.832008 59.726382 42.952522
498 53.990900 34.047100 24.921400 14.045213 11.954118 6.3807746
499 68.554100 47.073500 25.531200 24.314370 22.001605 7.3429523
500 77.637900 66.633300 44.162000 39.695551 40.980538 19.950956
501 33.590000 88.837800 9.1220000 33.054676 57.277210 6.5255937
502 42.699300 85.765800 48.464500 36.708259 55.735269 25.608750
503 47.397200 86.765600 61.860600 41.520572 58.839481 40.618671
504 66.823900 88.174700 69.602800 52.752000 66.045346 50.963388
505 76.799300 88.628600 78.154800 61.005126 70.460869 64.388408
506 16.633900 51.179600 32.348800 11.167090 17.458212 10.256949
507 81.915800 80.175200 33.122200 48.731667 56.444419 13.885452
508 88.329700 83.172300 47.372900 57.009423 63.171304 24.793790
509 0.0000000 12.356700 11.592100 0.8962699 1.2536893 1.5649782
510 0.0000000 24.542000 13.140000 2.2991906 3.8401321 2.1122505
511 13.022300 37.825200 30.375100 6.4911442 9.3536470 8.4694791
512 32.232800 45.364000 36.042000 11.809981 15.042970 12.138931
513 41.540500 53.692000 49.839000 18.996576 22.580505 23.357259
514 70.089400 57.170500 59.236500 34.183947 32.164922 34.341326
515 76.138200 68.599000 76.503400 47.090366 45.724002 59.141794
516 54.858000 45.838600 98.294100 35.268047 26.229968 100.02769
517 14.427400 8.5149000 43.500000 4.0679670 2.3623141 16.051678
518 57.435800 30.921300 43.990100 16.820354 12.402358 17.134554
519 0.0000000 0.0000000 0.0000000 0.0747717 0.0782332 0.0865786
520 32.249800 5.7776000 11.991000 3.5482103 2.0449289 1.6677979
521 36.951500 16.370500 17.607100 5.5630407 4.0547493 3.1435045
522 36.614100 12.987600 8.0381000 4.8439441 3.2891117 0.9748907
523 36.842200 21.516100 10.893200 5.8928546 5.0932150 1.7500700
524 51.153600 27.869000 11.330800 11.041290 8.9075667 1.9878895
525 55.716700 40.627200 14.303500 15.662834 15.040140 3.1474513
526 71.901200 37.722000 11.427900 22.651019 17.466682 2.5078189
527 89.344200 39.418200 13.830600 34.004587 23.825346 3.2782124
528 88.527600 55.665300 15.971000 38.870600 33.737633 4.8821605
529 37.220400 13.409800 24.105500 5.7887954 3.7823951 5.2660715
530 47.336300 12.915500 38.338900 10.038580 5.7892355 12.815371
531 68.695600 29.784800 42.329700 21.715958 14.559960 16.073483
532 71.417600 35.226700 54.688600 26.671071 18.470012 27.978052
533 17.367700 88.357600 27.880400 31.021985 55.415459 11.937181
534 18.418900 89.139900 89.660400 45.789925 63.010854 86.265463
535 34.375000 89.287900 100.00000 52.796200 66.651296 108.20480
536 0.0000000 100.00000 84.992400 51.162349 77.535254 78.334327
537 30.139500 100.00000 91.048100 56.295692 79.941766 90.553386
538 49.336100 20.686700 19.445100 9.8321165 6.8838843 3.9049128
539 68.873000 39.793700 41.053000 24.005100 18.762553 15.645693
540 41.722500 20.761100 54.113300 11.775601 7.6664818 26.819181
541 65.144000 24.573500 56.929900 21.831058 13.402199 30.266313
542 76.778000 37.694200 69.551600 33.667816 22.702515 46.529955
543 88.398100 53.004400 89.059300 52.362080 38.404427 81.384790
544 0.0000000 9.9216000 17.527200 0.9581924 0.9984521 2.9003924
545 15.488300 32.691000 43.852300 7.1654097 7.9884451 16.884004
546 28.296700 43.641700 54.776400 13.604042 14.884540 28.413632
547 44.621300 70.658600 58.856500 29.577793 38.470077 34.764567
548 74.437300 87.095800 88.105900 62.177046 69.203788 83.022111
549 76.237900 100.00000 87.797200 72.639354 88.247632 84.136301
550 12.542100 60.708600 64.915300 20.605447 27.457809 41.560361
551 15.030100 64.810000 84.171300 28.250813 33.292983 72.537043
552 18.746600 77.274800 89.617500 37.860399 47.911203 84.809092
553 15.430200 29.198900 26.618100 4.5561008 5.8306345 6.5036954
554 42.544600 32.299800 34.226200 10.615530 9.6565572 10.442299
555 56.060000 37.376000 36.636900 16.615744 14.166139 12.117951
556 58.699800 44.129800 48.168800 21.528718 19.391253 21.583157
557 80.885500 51.305700 49.175200 35.550158 29.606340 22.962518
558 45.169300 14.837600 84.904400 20.580607 10.745597 71.852853
559 61.306600 11.659500 90.108200 28.233103 14.078479 82.057080
560 79.656300 40.624800 90.848700 43.473153 28.359049 84.829462
561 57.004400 57.506100 70.006900 30.637804 30.513291 48.671166
562 57.990900 77.382400 81.399500 44.696784 51.493066 68.751281
563 70.991700 80.130900 87.686000 55.348742 59.237411 81.295519
564 56.682800 8.7958000 15.626900 11.288121 6.0991567 2.6120018
565 70.421700 16.389900 26.465800 19.257186 10.893877 6.3820446
566 75.111300 15.069200 88.106400 35.240377 18.025882 77.973137
567 89.468000 12.811700 89.149600 44.244894 22.284645 79.851198
568 51.094800 19.407200 49.896500 13.646542 8.3926843 21.942288
569 52.776200 32.781200 51.481700 16.661604 12.796138 23.876709
570 36.961300 14.557100 69.647400 13.469052 7.3762056 45.992034
571 50.056200 34.297900 70.720200 20.530697 14.869940 47.766296
572 69.067000 56.632500 76.921000 37.781109 33.321083 58.780074
573 85.244400 66.000600 87.984200 55.398782 47.882363 79.883768
574 73.154300 0.0000000 58.912500 24.409330 11.984068 31.857425
575 85.245100 11.907400 61.155900 32.739486 16.818281 35.033007
576 87.883800 32.911600 68.744200 39.441440 24.036306 45.411074
577 18.591000 48.083000 19.626400 9.2407961 14.960480 4.8970225
578 35.756300 57.727600 44.994400 18.430906 24.583427 19.721466
579 21.019800 11.030400 21.437800 2.6706242 1.9741988 4.2593635
580 30.298800 10.354700 47.821200 6.8921272 3.8652511 19.934133
581 29.635500 16.879700 100.00000 23.020489 11.823488 102.85279
582 54.592200 68.291400 100.00000 45.218255 44.081121 105.77330
583 14.782000 49.368200 64.469500 15.917904 18.616393 39.698030
584 81.445400 100.00000 64.055900 68.643231 86.624451 45.543144
585 81.502000 82.070300 0.0000000 47.937316 57.774260 5.0336856
586 92.316200 84.958900 16.209700 57.791963 65.538806 7.9594057
587 88.937800 17.178000 11.905700 29.647694 16.262511 2.1343476
588 100.00000 27.956800 31.161000 41.524112 24.154656 9.2864796
END_DATA
CAL    

DESCRIPTOR "Argyll Device Calibration State"
ORIGINATOR "Argyll dispread"
CREATED "Tue May 26 13:42:26 2020"
DEVICE_CLASS "DISPLAY"
COLOR_REP "RGB"

BEGIN_ARGYLL_DISPCAL_ARGS
-v2 -ql -m -w0.3127,0.329 -gs -f1.0 -k0 -A4.0 -d2 -c1 -yn -P0.475424224693,0.648471615721,2.23653088042 -F -X "Xrite i1 DisplayPro, ColorMunki Display & Dell DELL U2913WM (GretagMacbeth i1 Pro).ccmx"
END_ARGYLL_DISPCAL_ARGS


NUMBER_OF_FIELDS 4
BEGIN_DATA_FORMAT
RGB_I RGB_R RGB_G RGB_B
END_DATA_FORMAT

NUMBER_OF_SETS 256
BEGIN_DATA
0.00000000 0.00000000 0.00000000 0.00000000
0.00392157 0.00640559 0.00867820 0.00808495
0.00784314 0.01259000 0.01689600 0.01581320
0.01176470 0.01856450 0.02468900 0.02320800
0.01568630 0.02433950 0.03208940 0.03029030
0.01960780 0.02992490 0.03912560 0.03707880
0.02352940 0.03532970 0.04581010 0.04357450
0.02745100 0.04055200 0.05218220 0.04980060
0.03137250 0.04561030 0.05826880 0.05579140
0.03529410 0.05053560 0.06408540 0.06154820
0.03921570 0.05535410 0.06964940 0.06707790
0.04313730 0.06008020 0.07497910 0.07239730
0.04705880 0.06471470 0.08009300 0.07752900
0.05098040 0.06925780 0.08501660 0.08249740
0.05490200 0.07371690 0.08974260 0.08730210
0.05882350 0.07808740 0.09427920 0.09193750
0.06274510 0.08235570 0.09865000 0.09641320
0.06666670 0.08652450 0.10286500 0.10073300
0.07058820 0.09059290 0.10693600 0.10490800
0.07450980 0.09455780 0.11086600 0.10894200
0.07843140 0.09841400 0.11467100 0.11284600
0.08235290 0.10215900 0.11837300 0.11663900
0.08627450 0.10578900 0.12197500 0.12032700
0.09019610 0.10930500 0.12548200 0.12391400
0.09411760 0.11271300 0.12891800 0.12742100
0.09803920 0.11602300 0.13229400 0.13086200
0.10196100 0.11924700 0.13561100 0.13423800
0.10588200 0.12238900 0.13886900 0.13755500
0.10980400 0.12545600 0.14207400 0.14081700
0.11372500 0.12845400 0.14524900 0.14404900
0.11764700 0.13140000 0.14840300 0.14725800
0.12156900 0.13430200 0.15153800 0.15044400
0.12549000 0.13716500 0.15465300 0.15360600
0.12941200 0.13999100 0.15774500 0.15674300
0.13333300 0.14278300 0.16081200 0.15985500
0.13725500 0.14554400 0.16386200 0.16295400
0.14117600 0.14827700 0.16691600 0.16605800
0.14509800 0.15099900 0.16997900 0.16916700
0.14902000 0.15372500 0.17305300 0.17228100
0.15294100 0.15645400 0.17613600 0.17539900
0.15686300 0.15918400 0.17922700 0.17851800
0.16078400 0.16191400 0.18232500 0.18163600
0.16470600 0.16464200 0.18542200 0.18474400
0.16862700 0.16736400 0.18851300 0.18784200
0.17254900 0.17008100 0.19159500 0.19093000
0.17647100 0.17279200 0.19468300 0.19402700
0.18039200 0.17549900 0.19779700 0.19714000
0.18431400 0.17822000 0.20093800 0.20026900
0.18823500 0.18095800 0.20410600 0.20341600
0.19215700 0.18370800 0.20730100 0.20658100
0.19607800 0.18647000 0.21052700 0.20976600
0.20000000 0.18924700 0.21378800 0.21297400
0.20392200 0.19203500 0.21708100 0.21620600
0.20784300 0.19483400 0.22040500 0.21946500
0.21176500 0.19764500 0.22376300 0.22275100
0.21568600 0.20046800 0.22714300 0.22606100
0.21960800 0.20330200 0.23054300 0.22940100
0.22352900 0.20614700 0.23396700 0.23277200
0.22745100 0.20900600 0.23742200 0.23618200
0.23137300 0.21188000 0.24092100 0.23965400
0.23529400 0.21477200 0.24447700 0.24320100
0.23921600 0.21769800 0.24808900 0.24682400
0.24313700 0.22066500 0.25175500 0.25050400
0.24705900 0.22367500 0.25545100 0.25421400
0.25098000 0.22671700 0.25915800 0.25795300
0.25490200 0.22977900 0.26287400 0.26171800
0.25882400 0.23286100 0.26659800 0.26550900
0.26274500 0.23596200 0.27032800 0.26932600
0.26666700 0.23908100 0.27406200 0.27317000
0.27058800 0.24222100 0.27780500 0.27704200
0.27451000 0.24538000 0.28156700 0.28093500
0.27843100 0.24856000 0.28534500 0.28484500
0.28235300 0.25176700 0.28914100 0.28875600
0.28627500 0.25500500 0.29294700 0.29265300
0.29019600 0.25827200 0.29675000 0.29653900
0.29411800 0.26155700 0.30055300 0.30041800
0.29803900 0.26485900 0.30436200 0.30429300
0.30196100 0.26818000 0.30818200 0.30816100
0.30588200 0.27151900 0.31201000 0.31202200
0.30980400 0.27487400 0.31583800 0.31587700
0.31372500 0.27824900 0.31966400 0.31973100
0.31764700 0.28164500 0.32348900 0.32359800
0.32156900 0.28506300 0.32732600 0.32747900
0.32549000 0.28850500 0.33117900 0.33138100
0.32941200 0.29198100 0.33505300 0.33532100
0.33333300 0.29549200 0.33897100 0.33927300
0.33725500 0.29903900 0.34291200 0.34323300
0.34117600 0.30261900 0.34686800 0.34719900
0.34509800 0.30621100 0.35084200 0.35116800
0.34902000 0.30981100 0.35483200 0.35514100
0.35294100 0.31342200 0.35883400 0.35912000
0.35686300 0.31704100 0.36284500 0.36309800
0.36078400 0.32066900 0.36686000 0.36706700
0.36470600 0.32430600 0.37086300 0.37103300
0.36862700 0.32794800 0.37486200 0.37502300
0.37254900 0.33159200 0.37888000 0.37904300
0.37647100 0.33524300 0.38293300 0.38309200
0.38039200 0.33890900 0.38701700 0.38717300
0.38431400 0.34259800 0.39114000 0.39127800
0.38823500 0.34630300 0.39530100 0.39540700
0.39215700 0.35002700 0.39949900 0.39956500
0.39607800 0.35377800 0.40373400 0.40373000
0.40000000 0.35755800 0.40798200 0.40788200
0.40392200 0.36136600 0.41220500 0.41202200
0.40784300 0.36517900 0.41640300 0.41614000
0.41176500 0.36897400 0.42057700 0.42022600
0.41568600 0.37275500 0.42471400 0.42428800
0.41960800 0.37651900 0.42881300 0.42835900
0.42352900 0.38025400 0.43290600 0.43244100
0.42745100 0.38395600 0.43700800 0.43653400
0.43137300 0.38764600 0.44112200 0.44063600
0.43529400 0.39133500 0.44524500 0.44474200
0.43921600 0.39502400 0.44937200 0.44884800
0.44313700 0.39871600 0.45348200 0.45295200
0.44705900 0.40240800 0.45757400 0.45705800
0.45098000 0.40610000 0.46166000 0.46116700
0.45490200 0.40979400 0.46574100 0.46527400
0.45882400 0.41349200 0.46981200 0.46938000
0.46274500 0.41719800 0.47386800 0.47348600
0.46666700 0.42090700 0.47791100 0.47759000
0.47058800 0.42461400 0.48194100 0.48169500
0.47451000 0.42832000 0.48595800 0.48579800
0.47843100 0.43202600 0.48996400 0.48990000
0.48235300 0.43573100 0.49396000 0.49400900
0.48627500 0.43943700 0.49794600 0.49815400
0.49019600 0.44314400 0.50193700 0.50230400
0.49411800 0.44685500 0.50595600 0.50644000
0.49803900 0.45059000 0.50998500 0.51056100
0.50196100 0.45434500 0.51400100 0.51466900
0.50588200 0.45809500 0.51800600 0.51876300
0.50980400 0.46183700 0.52199600 0.52284400
0.51372500 0.46557100 0.52597100 0.52691000
0.51764700 0.46929500 0.52993000 0.53096200
0.52156900 0.47301000 0.53387400 0.53499700
0.52549000 0.47671400 0.53780000 0.53902200
0.52941200 0.48040800 0.54170400 0.54303400
0.53333300 0.48409200 0.54559400 0.54702400
0.53725500 0.48776900 0.54946900 0.55099300
0.54117600 0.49143500 0.55331500 0.55495700
0.54509800 0.49508700 0.55713400 0.55892300
0.54902000 0.49873000 0.56094400 0.56289500
0.55294100 0.50235900 0.56475500 0.56687200
0.55686300 0.50597100 0.56856900 0.57082900
0.56078400 0.50957300 0.57238900 0.57475400
0.56470600 0.51316900 0.57621300 0.57864600
0.56862700 0.51674800 0.58002200 0.58249200
0.57254900 0.52030200 0.58381500 0.58629500
0.57647100 0.52383300 0.58758700 0.59006100
0.58039200 0.52732800 0.59132500 0.59380500
0.58431400 0.53078500 0.59502800 0.59755300
0.58823500 0.53420700 0.59870000 0.60130900
0.59215700 0.53759800 0.60236600 0.60506600
0.59607800 0.54098400 0.60605000 0.60882000
0.60000000 0.54436400 0.60975100 0.61256400
0.60392200 0.54773800 0.61346700 0.61630100
0.60784300 0.55110500 0.61719400 0.62004200
0.61176500 0.55447100 0.62092600 0.62380700
0.61568600 0.55784000 0.62466200 0.62759600
0.61960800 0.56121600 0.62841700 0.63140700
0.62352900 0.56460800 0.63221400 0.63524300
0.62745100 0.56801800 0.63605200 0.63910900
0.63137300 0.57144400 0.63993500 0.64300900
0.63529400 0.57488600 0.64387300 0.64694000
0.63921600 0.57834600 0.64787000 0.65090000
0.64313700 0.58182200 0.65192400 0.65489100
0.64705900 0.58532000 0.65603500 0.65891200
0.65098000 0.58884200 0.66020200 0.66294200
0.65490200 0.59238600 0.66442400 0.66693900
0.65882400 0.59595100 0.66869700 0.67090200
0.66274500 0.59953000 0.67296100 0.67482700
0.66666700 0.60309500 0.67718200 0.67871600
0.67058800 0.60664100 0.68136300 0.68257000
0.67451000 0.61016700 0.68550000 0.68639500
0.67843100 0.61367400 0.68960000 0.69019400
0.68235300 0.61717100 0.69366400 0.69396600
0.68627500 0.62066200 0.69770300 0.69771500
0.69019600 0.62415200 0.70172300 0.70143800
0.69411800 0.62764000 0.70572700 0.70514300
0.69803900 0.63112000 0.70971700 0.70885100
0.70196100 0.63458900 0.71369400 0.71257900
0.70588200 0.63804600 0.71767100 0.71632600
0.70980400 0.64150300 0.72168100 0.72008700
0.71372500 0.64497600 0.72572400 0.72385200
0.71764700 0.64846600 0.72979400 0.72762000
0.72156900 0.65197500 0.73387100 0.73138900
0.72549000 0.65549600 0.73795000 0.73516200
0.72941200 0.65902200 0.74202800 0.73894100
0.73333300 0.66254500 0.74610800 0.74273800
0.73725500 0.66606600 0.75019300 0.74653400
0.74117600 0.66958600 0.75429600 0.75031400
0.74509800 0.67312500 0.75837900 0.75407700
0.74902000 0.67666600 0.76243800 0.75781900
0.75294100 0.68020600 0.76647400 0.76153500
0.75686300 0.68374600 0.77049000 0.76522300
0.76078400 0.68728500 0.77448500 0.76888600
0.76470600 0.69082600 0.77845600 0.77253300
0.76862700 0.69437500 0.78240900 0.77617300
0.77254900 0.69793200 0.78636700 0.77980900
0.77647100 0.70149000 0.79032900 0.78344300
0.78039200 0.70504600 0.79429300 0.78708100
0.78431400 0.70859700 0.79826300 0.79072300
0.78823500 0.71214800 0.80223700 0.79436900
0.79215700 0.71569700 0.80620200 0.79799500
0.79607800 0.71924100 0.81011800 0.80159800
0.80000000 0.72275200 0.81398200 0.80518100
0.80392200 0.72621900 0.81779600 0.80874900
0.80784300 0.72964600 0.82156300 0.81230400
0.81176500 0.73303800 0.82529400 0.81584600
0.81568600 0.73639700 0.82899100 0.81937600
0.81960800 0.73972300 0.83265700 0.82289500
0.82352900 0.74301800 0.83630400 0.82642500
0.82745100 0.74628500 0.83996600 0.82997500
0.83137300 0.74955400 0.84364600 0.83354600
0.83529400 0.75284300 0.84734500 0.83713500
0.83921600 0.75615200 0.85106400 0.84074400
0.84313700 0.75947700 0.85480800 0.84437300
0.84705900 0.76282200 0.85857400 0.84801500
0.85098000 0.76619100 0.86234300 0.85164800
0.85490200 0.76957800 0.86610900 0.85526400
0.85882400 0.77297200 0.86986900 0.85886700
0.86274500 0.77637100 0.87362300 0.86245800
0.86666700 0.77977000 0.87737500 0.86604000
0.87058800 0.78316700 0.88115000 0.86963400
0.87451000 0.78656700 0.88495100 0.87324500
0.87843100 0.78997600 0.88878000 0.87687300
0.88235300 0.79339200 0.89262800 0.88051400
0.88627500 0.79681500 0.89648400 0.88416700
0.89019600 0.80024200 0.90034800 0.88782900
0.89411800 0.80367100 0.90422800 0.89150300
0.89803900 0.80710800 0.90813000 0.89518900
0.90196100 0.81055000 0.91205400 0.89889300
0.90588200 0.81400000 0.91598700 0.90260600
0.90980400 0.81745300 0.91992500 0.90632800
0.91372500 0.82090900 0.92385500 0.91004700
0.91764700 0.82436000 0.92777200 0.91375600
0.92156900 0.82780200 0.93166900 0.91745000
0.92549000 0.83123800 0.93554000 0.92112700
0.92941200 0.83466500 0.93937600 0.92479200
0.93333300 0.83808000 0.94317600 0.92844300
0.93725500 0.84148600 0.94693900 0.93208400
0.94117600 0.84488500 0.95066300 0.93571500
0.94509800 0.84827700 0.95434400 0.93932900
0.94902000 0.85166500 0.95797900 0.94292400
0.95294100 0.85504800 0.96156900 0.94649600
0.95686300 0.85842600 0.96511800 0.95004800
0.96078400 0.86179700 0.96862700 0.95358700
0.96470600 0.86516000 0.97210200 0.95711200
0.96862700 0.86851600 0.97554400 0.96062200
0.97254900 0.87186800 0.97895400 0.96412000
0.97647100 0.87521500 0.98233400 0.96760300
0.98039200 0.87855800 0.98568200 0.97107200
0.98431400 0.88189700 0.98900000 0.97452800
0.98823500 0.88523200 0.99228800 0.97797000
0.99215700 0.88856300 0.99554600 0.98139900
0.99607800 0.89188900 0.99877500 0.98481400
1.00000000 0.89521100 1.00000000 0.98821600
END_DATA
